Jaz Data File
++++++++++++++++++++++++++++++++++++
Date: Mon Apr 22 19:26:04 2019
User: jaz
Dark Spectrum Present: Yes
Reference Spectrum Present: Yes
Processed Spectrum Present: Yes
Spectrometers: JAZA2928
Integration Time (usec): 40000 (JAZA2928)
Spectra Averaged: 10 (JAZA2928)
Boxcar Smoothing: 5 (JAZA2928)
Correct for Electrical Dark: No (JAZA2928)
Strobe/Lamp Enabled: Yes (JAZA2928)
Correct for Detector Non-linearity: No (JAZA2928)
Correct for Stray Light: No (JAZA2928)
Number of Pixels in Processed Spectrum: 2048
>>>>>Begin Processed Spectral Data<<<<<
W	D	R	S	P
190.104553	0.000000	0.000000	0.000000	0.000000
190.488098	0.000000	0.000000	0.000000	0.000000
190.871613	1077.423828	1084.994751	1050.216064	-359.371826
191.255096	1080.499390	1079.079956	1061.808960	1316.752686
191.638535	0.000000	0.000000	0.000000	0.000000
192.021942	903.294739	908.865295	896.777893	-116.987335
192.405334	1004.317993	1010.039124	997.607605	-117.291298
192.788696	1107.599609	1112.288330	1097.125366	-223.392349
193.172012	1111.471069	1116.052246	1103.147583	-181.688828
193.555313	1116.138306	1118.654663	1110.911865	-207.698654
193.938568	1122.375488	1122.956299	1114.030396	-1436.801147
194.321793	1125.386597	1126.505127	1117.686890	-688.377197
194.704987	1126.655640	1129.473267	1120.224731	-228.238449
195.088150	1127.429810	1129.387207	1121.386230	-308.755859
195.471298	1126.505249	1131.710083	1123.128418	-64.878746
195.854401	1127.494629	1132.054199	1123.214478	-93.871811
196.237457	1129.064575	1128.957031	1125.494263	3319.863770
196.620499	1129.043091	1130.441040	1126.999878	-146.157883
197.003494	1127.171875	1130.140137	1129.430298	76.085709
197.386475	1126.999878	1131.129395	1128.677612	40.627865
197.769424	1126.419067	1132.441406	1125.042725	-22.853958
198.152344	1123.365112	1134.527832	1128.462524	45.664608
198.535217	1120.934570	1135.947266	1124.784668	25.645613
198.918076	1121.149658	1138.098022	1125.408325	25.127304
199.300903	1121.838013	1139.668091	1123.752197	10.735704
199.683670	1123.838257	1144.421387	1122.633789	-5.851723
200.066422	1123.730591	1145.023560	1121.816406	-8.989750
200.449142	1121.967041	1147.884277	1123.171509	4.647362
200.831848	1122.719849	1149.174683	1123.773804	3.983979
201.214508	1123.537109	1149.002686	1123.859863	1.267413
201.597137	1122.891846	1150.120972	1124.827637	7.109266
201.979736	1122.612183	1152.874146	1126.204224	11.869822
202.362274	1122.633789	1149.088623	1122.719849	0.325308
202.744827	1121.257202	1147.625977	1125.300903	15.335188
203.127319	1119.171021	1146.055908	1125.150269	22.240183
203.509796	1116.525513	1142.786621	1124.483643	30.303862
203.892227	1113.406860	1136.872070	1123.386597	42.529926
204.274643	1110.567749	1137.151489	1123.881348	50.081738
204.657013	1110.804321	1134.850342	1122.719727	49.552505
205.039352	1108.223389	1132.441406	1121.364746	54.262730
205.421661	1104.932617	1135.796753	1119.343018	46.689793
205.803940	1103.964722	1135.516968	1117.579468	43.149849
206.186188	1103.771118	1133.344727	1116.181396	41.964031
206.568405	1101.921387	1134.248169	1114.460815	38.789597
206.950592	1103.297974	1136.119263	1113.836914	32.110073
207.332748	1101.340698	1133.882446	1110.589111	28.420149
207.714859	1099.964233	1136.269775	1109.470825	26.184961
208.096939	1099.598511	1137.732422	1110.180542	27.749662
208.478989	1098.695190	1137.280762	1107.986816	24.080572
208.861008	1098.931763	1138.291626	1107.276978	21.202347
209.243011	1099.318848	1140.765137	1105.169312	14.115772
209.624969	1098.652222	1139.410034	1106.137207	18.364542
210.006897	1098.480103	1140.377808	1106.352295	18.789078
210.388794	1097.469238	1141.345703	1106.115479	19.705872
210.770645	1097.426270	1141.603882	1106.782227	21.178051
211.152481	1097.146606	1140.549927	1108.115723	25.272528
211.534286	1097.404785	1143.152344	1109.750366	26.986317
211.916061	1097.490723	1141.238159	1109.019165	26.352270
212.297791	1097.985474	1142.119995	1108.417114	23.636011
212.679489	1097.125122	1143.195435	1109.126831	26.050852
213.061157	1093.662354	1142.313599	1108.997559	31.520683
213.442795	1093.812988	1142.786743	1108.653442	30.302872
213.824402	1094.071167	1142.829712	1109.427734	31.495131
214.205963	1094.823730	1141.496216	1110.395630	33.364197
214.587524	1093.705444	1141.195190	1111.427856	37.318398
214.969025	1094.952881	1142.937378	1111.535522	34.558331
215.350510	1093.554932	1145.948486	1109.492310	30.418585
215.731949	1092.823730	1144.572021	1110.524780	34.206059
216.113358	1092.221558	1147.841309	1112.309937	36.117348
216.494736	1093.361328	1147.239014	1113.234741	36.886166
216.876083	1093.124878	1145.324707	1115.901611	43.633732
217.257401	1094.823975	1146.765747	1116.159912	41.076645
217.638702	1094.910034	1149.389771	1118.826782	43.900265
218.019943	1095.791748	1151.841553	1119.063354	41.519512
218.401169	1094.006592	1152.142700	1121.450806	47.206829
218.782349	1094.372070	1154.788208	1123.988770	49.021172
219.163498	1094.436646	1158.272583	1125.859863	49.224964
219.544632	1098.286621	1158.659668	1128.118286	49.412224
219.925705	1102.416138	1162.423584	1126.827759	40.680988
220.306778	1103.104370	1163.929199	1125.666260	37.093224
220.687805	1101.082520	1168.661011	1126.203979	37.173752
221.068802	1101.770996	1176.640503	1123.709106	29.301796
221.449738	1101.985840	1182.598145	1124.547974	27.988449
221.830673	1099.340454	1186.620117	1126.956909	31.641340
222.211563	1098.394043	1191.932617	1128.010742	31.662552
222.592438	1098.759766	1200.084106	1127.537476	28.401577
222.973267	1099.060913	1206.730225	1126.031982	25.049913
223.354065	1097.727417	1211.655518	1128.204346	26.751020
223.734848	1093.791382	1217.828369	1127.430054	27.119871
224.115555	1090.436157	1228.302734	1130.677734	29.188784
224.496262	1092.694458	1238.497559	1133.559692	28.027685
224.876923	1092.178223	1246.498535	1136.119385	28.473997
225.257568	1091.016846	1255.639526	1140.915527	30.310940
225.638168	1088.113281	1265.554688	1146.314087	32.800014
226.018723	1090.479248	1277.147583	1150.379028	32.088882
226.399277	1092.328735	1291.923462	1156.014160	31.907368
226.779785	1094.759277	1309.861206	1163.305420	31.866819
227.160263	1093.726929	1333.046875	1173.005493	33.126602
227.540695	1093.103149	1363.351685	1182.619751	33.123806
227.921112	1091.984741	1408.217529	1197.976440	33.516987
228.301483	1092.501099	1466.525879	1218.645630	33.726250
228.681824	1092.006348	1543.460083	1246.842773	34.297295
229.062134	1095.339966	1631.212891	1277.728271	34.035740
229.442413	1095.404419	1713.438232	1307.366333	34.296169
229.822647	1099.469604	1782.349976	1330.422974	33.820473
230.202881	1100.846069	1832.011841	1348.210083	33.831455
230.583054	1100.674072	1871.651245	1360.340576	33.680180
230.963196	1098.372681	1904.106934	1370.664429	33.794239
231.343292	1097.576782	1930.819946	1380.902222	34.002731
231.723404	1097.146606	1946.348755	1385.612427	33.969040
232.103439	1098.372681	1940.670654	1386.515747	34.209160
232.483459	1098.630737	1913.054321	1377.740601	34.270847
232.863434	1096.802612	1867.650757	1361.200806	34.299648
233.243393	1091.662109	1814.934814	1340.918823	34.462341
233.623306	1092.909668	1767.294434	1324.207153	34.297554
234.003174	1092.242920	1737.763672	1312.678833	34.148540
234.383041	1089.382324	1724.880371	1305.968262	34.081291
234.762848	1090.930786	1717.675293	1304.462646	34.070000
235.142639	1091.855591	1711.932495	1303.043213	34.058296
235.522385	1094.135498	1708.491089	1297.795166	33.150127
235.902115	1095.834839	1710.212036	1293.816284	32.224739
236.281799	1095.641113	1716.384766	1293.084961	31.807631
236.661438	1096.178833	1729.009888	1293.235474	31.138903
237.041077	1095.576660	1740.946899	1297.322144	31.260426
237.420654	1098.458618	1747.033569	1301.602173	31.321524
237.800217	1097.963989	1755.550659	1302.225830	31.062346
238.179733	1098.351074	1761.530029	1303.688354	30.962574
238.559219	1100.372925	1769.509644	1305.882080	30.712582
238.938690	1098.265137	1782.220703	1308.592163	30.751562
239.318100	1096.630493	1800.158325	1310.656982	30.421894
239.697510	1097.017578	1821.687988	1316.593262	30.300076
240.076859	1097.168091	1847.260986	1329.067993	30.916157
240.456177	1098.178955	1891.976440	1340.273682	30.498299
240.835464	1096.651855	1948.263184	1356.168213	30.473568
241.214722	1097.275757	2024.745728	1378.256836	30.295437
241.593948	1097.963989	2132.092285	1405.808594	29.768513
241.973129	1097.856567	2259.333740	1442.479736	29.671110
242.352295	1097.297363	2406.750000	1481.903931	29.371552
242.731415	1097.856323	2553.327148	1521.242188	29.089272
243.110519	1095.877686	2674.417480	1553.246094	28.974146
243.489578	1095.877686	2769.440186	1580.152710	28.936775
243.868607	1096.049805	2835.943115	1598.886230	28.900417
244.247604	1097.684448	2886.035156	1608.715576	28.575554
244.626541	1098.910278	2917.953125	1616.372314	28.446941
245.005493	1099.792114	2945.719727	1626.954346	28.558121
245.384369	1100.114868	2970.948975	1631.514038	28.404398
245.763229	1100.609497	2998.909180	1640.611816	28.446632
246.142059	1102.760254	3052.937500	1652.484375	28.188417
246.520859	1102.351685	3154.261475	1682.143799	28.256220
246.899612	1100.889038	3308.366943	1724.084473	28.231104
247.278336	1101.942993	3494.518799	1775.617676	28.156881
247.657043	1102.394653	3664.540039	1821.666504	28.073029
248.035690	1101.405273	3803.309570	1861.004761	28.113485
248.414322	1100.867676	3921.002197	1893.395996	28.102501
248.792908	1099.297607	4008.367432	1919.657349	28.200071
249.171478	1099.835205	4061.642822	1930.712524	28.053049
249.550003	1101.104126	4068.827148	1934.884766	28.094961
249.928482	1100.588013	4035.661621	1924.238281	28.062336
250.306961	1099.620117	3942.724854	1898.966309	28.115257
250.685364	1099.362061	3780.747803	1852.681152	28.094395
251.063782	1100.652466	3577.324951	1795.469604	28.054462
251.442123	1101.168701	3379.536865	1740.301514	28.052217
251.820450	1102.416138	3241.261963	1701.931274	28.029844
252.198761	1102.201050	3168.177490	1682.961304	28.110689
252.576996	1101.276245	3111.740479	1668.464844	28.211823
252.955246	1101.921509	3063.153809	1654.527466	28.176466
253.333420	1101.039673	3017.792969	1644.332764	28.344446
253.711578	1100.437500	2990.306152	1632.567627	28.156990
254.089706	1100.308472	2965.872803	1625.039917	28.127224
254.467804	1098.716675	2948.537354	1620.566284	28.210821
254.845871	1099.856567	2933.202148	1614.501099	28.071333
255.223877	1098.996338	2907.005371	1605.274170	28.001953
255.601898	1100.480347	2870.334229	1592.584351	27.804781
255.979828	1098.265137	2818.026367	1578.754761	27.939322
256.357727	1098.630737	2763.826172	1560.322266	27.725967
256.735657	1098.480225	2741.457764	1551.891113	27.596901
257.113525	1098.071411	2758.492432	1556.795044	27.626947
257.491333	1098.480347	2812.197754	1569.914917	27.509470
257.869110	1097.835083	2891.799072	1590.003418	27.434683
258.246887	1097.684448	3007.146729	1622.351440	27.477211
258.624573	1097.232788	3174.092285	1665.346069	27.354441
259.002289	1097.275757	3402.142090	1728.321533	27.378847
259.379944	1098.566284	3704.265625	1810.374878	27.317373
259.757538	1098.415649	4068.052490	1908.752686	27.287413
260.135162	1099.318970	4428.032715	2001.947144	27.116425
260.512665	1100.760010	4715.939453	2080.773926	27.108307
260.890228	1099.792114	4904.715332	2130.479004	27.088243
261.267700	1101.147095	5016.622070	2157.880371	26.988634
261.645142	1101.942871	5083.039063	2170.828125	26.849018
262.022552	1103.211914	5120.677734	2180.312988	26.810461
262.399994	1102.717285	5125.904297	2178.592285	26.741859
262.777313	1103.857178	5080.715820	2165.881104	26.705095
263.154602	1104.911011	4961.216309	2131.747803	26.627478
263.531921	1102.824707	4760.159180	2076.171143	26.613546
263.909149	1102.459106	4480.791504	2000.979248	26.596558
264.286377	1101.491333	4192.583984	1924.410278	26.622267
264.663574	1099.878174	3972.277100	1862.273560	26.542114
265.040710	1101.921509	3845.767090	1823.731201	26.306498
265.417816	1099.168457	3795.782227	1807.492676	26.267174
265.794891	1099.340576	3797.803955	1809.686646	26.324095
266.171936	1099.104004	3841.508057	1820.784790	26.315626
266.548950	1099.921265	3899.708740	1830.893433	26.108130
266.925934	1101.383789	3954.425049	1838.077271	25.821341
267.302887	1100.329834	4020.368896	1851.498169	25.724598
267.679810	1102.308594	4091.776367	1868.166870	25.618549
268.056671	1102.652710	4176.216797	1886.749878	25.511009
268.433502	1101.749512	4266.658203	1905.741455	25.403322
268.810333	1101.684814	4350.517578	1923.485596	25.295263
269.187073	1099.039429	4426.677734	1942.477295	25.346441
269.563843	1101.362305	4488.276855	1957.167236	25.267981
269.940521	1100.588013	4541.895996	1965.791870	25.141714
270.317200	1099.899780	4605.710449	1972.997192	24.904295
270.693848	1099.146973	4713.035645	2001.624268	24.972471
271.070435	1097.705933	4884.304199	2045.629761	25.033653
271.447021	1095.856323	5082.371582	2088.495361	24.899920
271.823547	1093.920532	5251.705078	2126.327881	24.830708
272.200043	1092.931152	5382.043457	2154.804443	24.757414
272.576538	1096.501465	5496.100098	2182.700684	24.688599
272.952972	1096.630493	5606.415527	2207.520996	24.632893
273.329346	1099.641602	5698.835449	2228.641602	24.547781
273.705688	1097.490723	5766.155762	2242.858643	24.533092
274.082062	1094.221558	5809.837891	2252.859619	24.570236
274.458344	1094.049438	5806.568848	2254.386719	24.622440
274.834595	1093.060059	5748.755371	2233.782227	24.501650
275.210846	1093.748413	5652.141113	2207.563721	24.434387
275.587006	1095.361572	5538.041016	2181.603760	24.450157
275.963165	1096.135864	5473.688965	2166.612549	24.453768
276.339294	1095.920898	5444.265625	2159.622070	24.462210
276.715393	1094.329224	5440.265137	2155.492676	24.417374
277.091461	1093.942017	5437.361816	2151.728760	24.353775
277.467438	1092.931152	5444.867676	2151.900879	24.333300
277.843445	1094.372192	5460.289551	2156.052246	24.317455
278.219452	1097.361816	5481.604004	2161.924072	24.281557
278.595337	1097.275757	5513.521484	2168.827881	24.263870
278.971191	1097.318726	5547.805664	2178.334717	24.289837
279.347046	1096.716553	5572.969727	2183.776123	24.285034
279.722870	1095.727051	5607.189453	2189.067383	24.234720
280.098663	1096.953125	5631.234863	2191.260742	24.134090
280.474396	1098.222168	5683.004883	2200.982666	24.052624
280.850098	1099.727539	5749.679688	2213.908691	23.961132
281.225800	1099.770630	5852.595703	2236.987061	23.927168
281.601440	1099.125488	5983.816895	2266.496094	23.898554
281.977051	1098.996338	6153.665527	2303.124268	23.822092
282.352600	1100.265503	6314.695801	2337.128662	23.720007
282.728149	1102.996948	6448.454590	2365.304199	23.614578
283.103668	1104.007935	6547.198242	2384.768555	23.529594
283.479156	1102.588379	6633.079590	2404.341064	23.537741
283.854553	1102.502319	6720.380859	2424.773438	23.536840
284.229950	1098.480347	6819.877930	2446.152588	23.554949
284.605347	1096.501587	6916.750000	2468.520996	23.573210
284.980652	1094.888428	7007.728516	2490.179443	23.597647
285.355988	1092.500977	7095.331055	2507.837646	23.577824
285.731201	1094.243042	7173.210938	2525.345215	23.541861
286.106445	1094.888428	7234.551758	2535.583008	23.465368
286.481659	1094.802368	7309.464355	2552.531250	23.456285
286.856781	1091.490112	7380.248047	2567.372070	23.468576
287.231934	1093.942017	7436.878418	2581.373779	23.450207
287.607025	1097.254272	7468.667480	2585.782959	23.362616
287.982056	1100.114868	7471.699707	2583.416992	23.279955
288.357086	1103.577637	7457.009766	2579.158447	23.224939
288.732086	1104.201294	7427.049805	2569.630371	23.176722
289.107025	1104.373413	7399.476563	2559.435547	23.114191
289.481934	1106.137085	7369.988770	2553.133789	23.100750
289.856842	1104.395020	7367.579590	2546.896240	23.031433
290.231659	1103.276611	7383.409668	2547.304932	22.993595
290.606506	1102.717407	7399.583984	2548.488037	22.960159
290.981262	1104.029419	7420.532715	2552.617432	22.933384
291.355988	1103.341064	7460.408203	2561.156006	22.932192
291.730713	1101.276245	7499.531250	2570.017334	22.955339
292.105377	1100.996582	7523.040527	2574.749023	22.948339
292.480011	1102.115112	7531.126953	2579.437744	22.979000
292.854614	1101.340698	7544.418945	2586.944336	23.057360
293.229187	1102.093628	7573.949707	2602.989258	23.191116
293.603729	1104.115356	7617.632324	2619.227783	23.261049
293.978241	1103.771240	7652.840332	2639.811035	23.454321
294.352692	1101.964478	7681.683105	2665.663818	23.765444
294.727081	1101.061035	7708.525391	2687.558838	24.010691
295.101501	1098.609253	7761.865234	2718.315430	24.308029
295.475830	1095.512085	7848.133301	2752.534912	24.538958
295.850189	1095.038940	7991.893555	2806.390869	24.813513
296.224457	1091.683716	8203.381836	2877.646973	25.113035
296.598694	1089.403809	8463.350586	2960.281006	25.371450
296.972931	1089.016602	8729.597656	3047.259521	25.629503
297.347107	1088.586426	8935.946289	3114.450684	25.815870
297.721283	1087.898071	9061.037109	3163.381348	26.030945
298.095367	1089.769409	9098.051758	3189.857666	26.223955
298.469452	1092.737427	9080.931641	3195.643066	26.325171
298.843475	1092.199707	9037.636719	3193.299072	26.444101
299.217529	1094.587158	8972.337891	3188.674805	26.582304
299.591492	1096.436890	8892.672852	3177.748535	26.696363
299.965424	1098.135864	8774.442383	3156.477295	26.814215
300.339325	1102.179565	8594.958008	3119.526367	26.923882
300.713196	1103.513062	8374.263672	3064.293701	26.968063
301.087036	1105.448730	8138.126465	3002.694580	26.977573
301.460815	1104.975586	7937.585938	2952.344238	27.037523
301.834564	1103.771118	7774.533203	2914.017090	27.137018
302.208282	1103.125854	7649.119141	2878.851318	27.126907
302.582001	1103.297974	7531.814453	2845.965820	27.108398
302.955658	1103.297974	7423.306641	2820.607666	27.172585
303.329254	1100.889038	7332.241699	2792.109619	27.140505
303.702820	1101.276245	7248.747070	2773.892334	27.208199
304.076416	1100.910645	7176.007813	2752.147461	27.180418
304.449921	1099.491089	7122.452637	2731.757813	27.100733
304.823395	1099.749146	7062.165527	2718.874512	27.155523
305.196838	1099.426636	7003.878418	2701.754150	27.137617
305.570251	1097.921021	6932.858887	2683.622803	27.175983
305.943604	1096.479980	6870.485840	2663.491211	27.139065
306.316986	1096.350952	6825.146973	2653.038330	27.173029
306.690277	1094.759399	6800.218750	2647.532227	27.215561
307.063507	1094.200073	6800.971680	2647.145264	27.212324
307.436768	1095.038940	6830.372070	2655.856201	27.214066
307.809937	1092.328979	6880.078125	2666.782227	27.203205
308.183136	1093.081665	6951.484375	2684.182129	27.159286
308.556244	1091.640747	7039.259277	2710.142334	27.212599
308.929321	1092.802002	7145.702637	2735.930420	27.146133
309.302399	1091.963379	7244.488770	2762.105713	27.145639
309.675446	1093.597778	7353.104492	2786.345215	27.042824
310.048401	1095.167969	7449.568359	2813.208740	27.037024
310.421356	1093.662354	7553.624512	2838.674072	27.012724
310.794281	1094.049438	7670.606445	2867.452148	26.965519
311.167145	1096.264771	7784.168945	2894.401611	26.886402
311.539978	1100.437378	7864.242676	2915.221436	26.830814
311.912781	1102.588135	7910.098145	2926.943359	26.799156
312.285553	1101.147095	7899.667480	2922.405273	26.789038
312.658295	1102.308472	7851.940430	2908.833740	26.764797
313.031006	1101.254639	7786.728027	2891.799072	26.782612
313.403656	1101.792358	7728.354980	2871.667725	26.708801
313.776276	1101.663208	7684.435547	2859.214600	26.699257
314.148865	1102.029053	7688.415527	2856.009766	26.630394
314.521454	1105.040161	7694.351563	2858.031494	26.603558
314.893982	1103.147583	7677.596680	2854.375244	26.636873
315.266449	1101.018311	7620.212891	2835.340820	26.603325
315.638885	1095.899292	7539.772949	2808.347900	26.574833
316.011322	1094.544189	7452.429199	2781.656738	26.535751
316.383667	1094.759277	7385.065430	2760.234619	26.476856
316.756042	1094.458130	7327.316895	2745.867432	26.495214
317.128326	1094.049561	7277.848145	2729.478271	26.446991
317.500610	1094.329102	7220.959473	2716.379639	26.475410
317.872833	1094.157104	7145.443848	2697.151367	26.490139
318.245087	1094.608643	7047.453613	2669.750244	26.460318
