Jaz Data File
++++++++++++++++++++++++++++++++++++
Date: Mon Apr 22 19:25:05 2019
User: jaz
Dark Spectrum Present: Yes
Reference Spectrum Present: Yes
Processed Spectrum Present: Yes
Spectrometers: JAZA2928
Integration Time (usec): 40000 (JAZA2928)
Spectra Averaged: 10 (JAZA2928)
Boxcar Smoothing: 5 (JAZA2928)
Correct for Electrical Dark: No (JAZA2928)
Strobe/Lamp Enabled: Yes (JAZA2928)
Correct for Detector Non-linearity: No (JAZA2928)
Correct for Stray Light: No (JAZA2928)
Number of Pixels in Processed Spectrum: 2048
>>>>>Begin Processed Spectral Data<<<<<
W	D	R	S	P
190.104553	0.000000	0.000000	0.000000	0.000000
190.488098	0.000000	0.000000	0.000000	0.000000
190.871613	1085.940918	1056.130981	1061.572388	81.746330
191.255096	1070.326050	1101.319336	1091.382568	67.938965
191.638535	0.000000	0.000000	0.000000	0.000000
192.021942	909.790100	910.671936	909.639587	-17.068106
192.405334	1011.974854	1014.813904	1010.684326	-45.456303
192.788696	1115.987793	1119.256958	1113.514282	-75.661850
193.172012	1123.859741	1125.967529	1120.160278	-175.513992
193.555313	1129.924927	1129.688354	1124.590942	2254.695557
193.938568	1131.301514	1135.388062	1126.161011	-125.790840
194.321793	1133.688843	1137.689331	1129.043091	-116.129623
194.704987	1135.775146	1138.614136	1131.452026	-152.276733
195.088150	1136.871948	1135.818115	1131.688599	491.856842
195.471298	1134.785767	1136.377319	1131.129395	-229.736160
195.854401	1133.774902	1137.474121	1130.763794	-81.398499
196.237457	1133.538208	1135.990112	1133.065063	-19.297022
196.620499	1134.333984	1133.925415	1134.183472	36.838959
197.003494	1134.441528	1132.763916	1133.602661	50.003639
197.386475	1128.849487	1133.882446	1134.032959	102.990540
197.769424	1126.268555	1133.516724	1134.785767	117.508461
198.152344	1126.440552	1134.656738	1134.570679	98.952560
198.535217	1125.193237	1135.603027	1134.871826	92.975830
198.918076	1121.085083	1139.818726	1134.183472	69.919067
199.300903	1118.375122	1144.485840	1135.022339	63.756260
199.683670	1118.031006	1145.217163	1133.817871	58.069500
200.066422	1119.235474	1145.432251	1137.130127	68.308609
200.449142	1119.106567	1147.733643	1135.387939	56.874031
200.831848	1116.633057	1148.787476	1136.377319	61.404507
201.214508	1114.181152	1148.873535	1135.086792	60.260029
201.597137	1114.589722	1148.615356	1134.355591	58.091110
201.979736	1114.503662	1149.647827	1130.376587	45.165180
202.362274	1113.815308	1148.249878	1129.860474	46.596096
202.744827	1111.922729	1148.228271	1127.301025	42.357986
203.127319	1111.621582	1146.314087	1124.935059	38.375656
203.509796	1112.202271	1145.088013	1124.117676	36.232738
203.892227	1112.417480	1143.130737	1124.440552	39.146194
204.274643	1109.793457	1141.022949	1121.106567	36.225727
204.657013	1108.890137	1140.205688	1122.719849	44.162441
205.039352	1109.492310	1139.797119	1120.181763	35.273125
205.421661	1111.212891	1139.861572	1119.708496	29.654438
205.803940	1110.331177	1139.904541	1116.869507	22.108849
206.186188	1110.911865	1139.388428	1118.482666	26.586077
206.568405	1111.772217	1138.528198	1117.041626	19.694323
206.950592	1114.116577	1138.958252	1119.730103	22.597210
207.332748	1113.793945	1135.925659	1120.267944	29.252136
207.714859	1111.815186	1136.205322	1120.547485	35.802586
208.096939	1107.836182	1135.409546	1120.956177	47.582134
208.478989	1107.728638	1133.839355	1120.246216	47.940384
208.861008	1107.492065	1134.570679	1116.718994	34.074600
209.243011	1105.169067	1134.936401	1117.020020	39.811935
209.624969	1102.717163	1136.334351	1116.396362	40.691086
210.006897	1102.502075	1134.678223	1117.643921	47.059227
210.388794	1100.716919	1135.990234	1117.557861	47.744144
210.770645	1099.297363	1136.828979	1115.837158	44.068966
211.152481	1097.834839	1136.893555	1112.546509	37.665524
211.534286	1097.791870	1140.657349	1111.987183	33.115955
211.916061	1099.103882	1141.130615	1111.363525	29.171061
212.297791	1100.114746	1145.475220	1111.191406	24.419189
212.679489	1101.383667	1147.733521	1110.202026	19.025646
213.061157	1101.878418	1147.475464	1111.320435	20.707518
213.442795	1104.115234	1147.819580	1110.847290	15.403630
213.824402	1103.556152	1147.970215	1111.449585	17.772373
214.205963	1105.169067	1150.508057	1111.643066	14.279099
214.587524	1106.975830	1149.475708	1111.965698	11.740900
214.969025	1105.685425	1149.948853	1114.761719	20.505177
215.350510	1105.448730	1150.551025	1118.160156	28.183546
215.731949	1101.448364	1150.766113	1118.783691	35.150280
216.113358	1102.717285	1150.809082	1117.041626	29.785414
216.494736	1103.039917	1149.540161	1117.772949	31.683773
216.876083	1102.007568	1149.970337	1116.848145	30.941868
217.257401	1099.598633	1150.228394	1117.622437	35.599228
217.638702	1100.200928	1152.594238	1119.687378	37.192631
218.019943	1099.168457	1151.519043	1122.569336	44.700317
218.401169	1097.168335	1151.454590	1122.418823	46.513596
218.782349	1096.888550	1155.368896	1123.451050	45.421242
219.163498	1098.523193	1157.369263	1123.644653	42.690125
219.544632	1101.856934	1159.218872	1123.859741	38.357853
219.925705	1105.599365	1161.563232	1124.978149	34.627316
220.306778	1105.814453	1164.509888	1127.645142	37.193161
220.687805	1107.900757	1166.639282	1127.731201	33.760540
221.068802	1108.803955	1169.843872	1133.000732	39.640907
221.449738	1110.094604	1175.522095	1135.947144	39.513268
221.830673	1108.309326	1179.156860	1137.431274	41.105099
222.211563	1108.954590	1185.587891	1139.194946	39.461117
222.592438	1108.954590	1191.846680	1143.302979	41.437473
222.973267	1107.922119	1195.911621	1144.658081	41.750393
223.354065	1108.631958	1201.761841	1148.378906	42.679050
223.734848	1106.352051	1206.730225	1147.841187	41.332825
224.115555	1108.330933	1213.935425	1149.819946	39.287167
224.496262	1107.900757	1221.119019	1155.971191	42.458199
224.876923	1108.718018	1231.227905	1160.530884	42.292805
225.257568	1106.029419	1241.035522	1163.843140	42.823044
225.638168	1108.717896	1250.284058	1166.725220	40.975418
226.018723	1111.836670	1262.651245	1172.575439	40.273808
226.399277	1112.675537	1279.104980	1179.608643	40.217106
226.779785	1114.353149	1296.892090	1186.684692	39.625267
227.160263	1116.073975	1316.701050	1196.836548	40.255074
227.540695	1116.353394	1346.403564	1208.838013	40.201935
227.921112	1115.987915	1386.473145	1225.915283	40.640804
228.301483	1114.374756	1440.436646	1246.584595	40.547466
228.681824	1115.105957	1509.004272	1271.232788	39.636330
229.062134	1113.922974	1591.487793	1300.698730	39.110031
229.442413	1115.170410	1669.604736	1330.186279	38.781124
229.822647	1109.901123	1732.429810	1355.221680	39.407108
230.202881	1106.524292	1781.425049	1370.427856	39.102573
230.583054	1106.610229	1816.418457	1380.601074	38.600685
230.963196	1104.696167	1848.357910	1392.064941	38.642403
231.343292	1104.954224	1876.791748	1400.044434	38.232166
231.723404	1103.663696	1890.599731	1402.969482	38.034321
232.103439	1103.018433	1883.308716	1401.915649	38.305901
232.483459	1102.996948	1859.865112	1392.452148	38.243809
232.863434	1102.652710	1820.569824	1373.267090	37.694378
233.243393	1103.534668	1769.531128	1354.146484	37.629601
233.623306	1103.082886	1726.041870	1334.810791	37.197941
234.003174	1107.621094	1700.425781	1322.443604	36.238327
234.383041	1107.298462	1685.112183	1317.862183	36.441452
234.762848	1106.997314	1678.293823	1316.335083	36.642578
235.142639	1108.072754	1668.916382	1310.119263	36.025463
235.522385	1106.739258	1663.324341	1307.731934	36.111763
235.902115	1107.513550	1663.001831	1306.140259	35.757137
236.281799	1106.459717	1673.992310	1306.247803	35.202927
236.661438	1108.266357	1684.789429	1308.656738	34.758430
237.041077	1109.341797	1696.210205	1313.861572	34.849342
237.420654	1109.771973	1703.372314	1316.249023	34.783848
237.800217	1111.019409	1709.674194	1320.357056	34.968006
238.179733	1109.965576	1713.717651	1321.819702	35.089588
238.559219	1110.610840	1719.245239	1323.002808	34.896477
238.938690	1110.374146	1728.042114	1325.626709	34.849236
239.318100	1108.352417	1744.603394	1330.853149	34.970592
239.697510	1107.728638	1762.949707	1335.412842	34.749218
240.076859	1109.040771	1791.447998	1345.564575	34.660213
240.456177	1111.019409	1828.248169	1360.104004	34.728752
240.835464	1109.083740	1878.577026	1376.837402	34.796101
241.214722	1105.642456	1948.692993	1400.646606	34.992462
241.593948	1105.879028	2045.264160	1431.725708	34.687229
241.973129	1104.975586	2163.407959	1466.783813	34.183407
242.352295	1103.964722	2299.984131	1510.982788	34.031059
242.731415	1105.577759	2437.377197	1553.719238	33.649323
243.110519	1106.545654	2551.197754	1591.594971	33.575512
243.489578	1107.685547	2640.972412	1621.211670	33.491848
243.868607	1108.954590	2704.593262	1641.730469	33.389507
244.247604	1107.040405	2749.286865	1656.291138	33.445084
244.626541	1106.137085	2783.979492	1663.216797	33.202148
245.005493	1107.363037	2812.025879	1669.712402	32.988892
245.384369	1111.535645	2835.254639	1674.572998	32.664104
245.763229	1108.976196	2866.355225	1681.219116	32.562294
246.142059	1109.901001	2917.522705	1694.468018	32.339012
246.520859	1110.481689	3011.448242	1720.557373	32.092922
246.899612	1107.707153	3150.024170	1765.509033	32.208607
247.278336	1106.309204	3317.572510	1813.278442	31.971285
247.657043	1106.330688	3471.398193	1860.402466	31.883734
248.035690	1106.137085	3596.596680	1900.385986	31.891661
248.414322	1105.534790	3703.921143	1933.121094	31.850012
248.792908	1104.825073	3784.081787	1959.769653	31.909765
249.171478	1105.061646	3831.851318	1977.298828	31.987698
249.550003	1102.158081	3843.164307	1979.858154	32.021088
249.928482	1102.158203	3801.654053	1969.577393	32.132637
250.306961	1100.996704	3715.320313	1944.671143	32.271229
250.685364	1100.996582	3567.387695	1897.568481	32.297062
251.063782	1102.566650	3382.203857	1835.087524	32.133221
251.442123	1102.824829	3203.773193	1781.575684	32.306881
251.820450	1105.212036	3077.284424	1744.001099	32.391766
252.198761	1103.857300	3009.146973	1721.697266	32.427612
252.576996	1104.566895	2958.043945	1705.200439	32.405773
252.955246	1105.276733	2910.575684	1691.327759	32.462826
253.333420	1103.340942	2869.366455	1679.089722	32.601387
253.711578	1103.383911	2838.244385	1671.755493	32.761803
254.089706	1104.072266	2820.155762	1666.787109	32.790646
254.467804	1106.352173	2801.766357	1662.098389	32.779377
254.845871	1106.502686	2784.409180	1660.012207	32.988102
255.223877	1107.621094	2757.760742	1656.033203	33.234283
255.601898	1107.406006	2719.110840	1644.311279	33.312878
255.979828	1104.029175	2669.427490	1625.728394	33.326931
256.357727	1103.233521	2625.421875	1610.973877	33.355949
256.735657	1104.803589	2602.343994	1599.574585	33.038906
257.113525	1105.685425	2616.797607	1603.983643	32.975594
257.491333	1110.094482	2666.932617	1615.985229	32.494755
257.869110	1112.911987	2739.887695	1637.149170	32.221573
258.246887	1113.793945	2846.051514	1667.927246	31.989082
258.624573	1111.686035	2998.500244	1711.416382	31.785341
259.002289	1110.137573	3210.698975	1772.327026	31.524403
259.379944	1108.137207	3491.164063	1854.466309	31.318535
259.757538	1107.986572	3829.807861	1955.425049	31.134979
260.135162	1112.094727	4167.957031	2057.932373	30.951580
260.512665	1114.224121	4430.354980	2138.501465	30.887724
260.890228	1113.729370	4604.785156	2194.207275	30.949890
261.267700	1112.654053	4711.680176	2223.028320	30.852076
261.645142	1108.266357	4771.945801	2239.374268	30.873550
262.022552	1104.997192	4809.756836	2248.644287	30.869669
262.399994	1102.394653	4815.177246	2248.730225	30.875374
262.777313	1103.792725	4772.375977	2236.427490	30.873901
263.154602	1104.395020	4660.813965	2200.745850	30.827381
263.531921	1107.857666	4471.070313	2141.598633	30.736712
263.909149	1108.287964	4217.984863	2060.169189	30.610098
264.286377	1104.523926	3950.252930	1976.782471	30.651497
264.663574	1103.104370	3746.120850	1914.021973	30.681517
265.040710	1102.330200	3628.600098	1874.275269	30.556713
265.417816	1101.469849	3578.636963	1857.477417	30.519039
265.794891	1102.975464	3585.153809	1856.982788	30.376841
266.171936	1106.696289	3623.459961	1864.359863	30.104677
266.548950	1106.610229	3677.552490	1877.178955	29.972229
266.925934	1106.954468	3735.409180	1890.126831	29.795925
267.302887	1108.567505	3797.868164	1909.849487	29.795179
267.679810	1105.620972	3870.414795	1926.475098	29.689522
268.056671	1106.244629	3946.532227	1947.811279	29.629627
268.433502	1108.524536	4030.349121	1969.685059	29.473381
268.810333	1109.449341	4110.165527	1985.880493	29.207397
269.187073	1108.503052	4182.066895	2006.334473	29.211412
269.563843	1111.578613	4243.815918	2021.927856	29.063866
269.940521	1108.395386	4289.671387	2038.230835	29.228382
270.317200	1105.298218	4349.291016	2052.877930	29.210291
270.693848	1106.180054	4451.948730	2080.042725	29.107294
271.070435	1104.158203	4608.871582	2119.961670	28.983925
271.447021	1101.254761	4783.947266	2162.483154	28.816645
271.823547	1102.717285	4933.234863	2203.219238	28.729851
272.200043	1102.717285	5055.529785	2236.363037	28.679472
272.576538	1101.211792	5159.607422	2263.656982	28.642975
272.952972	1101.297729	5254.608398	2291.552734	28.657982
273.329346	1101.297852	5336.961914	2312.264893	28.589781
273.705688	1099.856689	5394.947754	2327.062256	28.572285
274.082062	1103.878662	5434.350586	2332.331787	28.367651
274.458344	1104.545410	5430.414551	2333.213623	28.402805
274.834595	1104.975586	5373.891113	2315.405273	28.354502
275.210846	1107.062012	5279.556641	2288.606201	28.317453
275.587006	1109.406372	5188.491699	2263.140625	28.284140
275.963165	1107.535156	5131.560547	2245.805176	28.286850
276.339294	1108.223389	5102.933105	2235.459717	28.218229
276.715393	1108.804199	5097.857422	2231.717529	28.149870
277.091461	1108.352417	5095.986328	2231.308838	28.160973
277.467438	1107.363159	5100.395508	2231.437744	28.150902
277.843445	1106.395142	5116.333008	2233.588867	28.110004
278.219452	1103.599121	5136.120605	2237.180420	28.110979
278.595337	1103.642090	5168.790527	2239.395752	27.938799
278.971191	1105.470215	5202.988770	2246.923584	27.857185
279.347046	1102.846191	5224.970215	2252.623047	27.892826
279.722870	1103.512939	5245.789551	2256.645264	27.838131
280.098663	1105.126099	5272.502930	2261.785645	27.755098
280.474396	1104.244263	5315.346680	2272.797852	27.749350
280.850098	1105.577759	5378.472656	2289.918213	27.717518
281.225800	1106.889771	5478.054688	2311.060791	27.548058
281.601440	1108.416870	5604.263672	2344.204590	27.487320
281.977051	1109.771973	5762.928711	2384.080566	27.385895
282.352600	1110.804321	5917.786621	2424.515625	27.329231
282.728149	1108.739502	6036.618652	2461.724609	27.455730
283.103668	1107.104858	6125.898438	2484.652100	27.447777
283.479156	1107.836182	6205.370605	2504.676025	27.402266
283.854553	1106.352173	6286.821777	2528.507080	27.452238
284.229950	1106.266113	6379.285645	2552.832275	27.433355
284.605347	1105.190796	6472.673340	2573.394287	27.353672
284.980652	1102.545288	6548.875488	2593.805664	27.381014
285.355988	1103.169067	6627.101074	2612.904541	27.330811
285.731201	1103.556152	6698.250000	2628.282715	27.253082
286.106445	1102.781982	6752.944824	2645.144775	27.297668
286.481659	1102.846313	6808.629395	2659.447754	27.281118
286.856781	1104.201294	6870.120117	2674.782959	27.239052
287.231934	1105.771362	6928.987793	2685.945557	27.135763
287.607025	1107.169556	6960.324707	2692.892822	27.091768
287.982056	1108.761108	6965.078125	2689.967773	27.000019
288.357086	1108.416870	6943.226074	2684.891602	27.018446
288.732086	1109.750244	6915.803223	2678.439453	27.018169
289.107025	1111.320313	6892.854492	2669.320068	26.947861
289.481934	1108.933105	6867.646484	2662.803223	26.982939
289.856842	1108.954590	6862.871582	2657.146729	26.906752
290.231659	1109.341675	6882.121582	2656.522949	26.801321
290.606506	1108.244751	6897.220215	2657.598145	26.763861
290.981262	1107.900757	6926.707520	2662.050293	26.709076
291.355988	1106.266113	6951.720703	2674.438965	26.827219
291.730713	1105.577759	6984.929688	2683.902588	26.845217
292.105377	1101.792358	7000.609375	2689.752686	26.919979
292.480011	1100.673950	7013.320801	2695.258789	26.969051
292.854614	1098.802734	7021.666016	2702.851318	27.082317
293.229187	1098.308105	7052.701660	2715.110840	27.153105
293.603729	1097.834839	7084.898926	2734.747314	27.340822
293.978241	1098.114502	7114.063965	2763.073486	27.675749
294.352692	1096.200317	7137.701660	2786.388184	27.976288
294.727081	1095.963745	7172.070801	2815.488525	28.299778
295.101501	1097.555298	7206.290527	2843.147949	28.575352
295.475830	1096.996216	7287.849609	2882.099121	28.834520
295.850189	1097.340332	7413.284180	2939.718994	29.170282
296.224457	1100.889038	7610.577637	3018.868652	29.463463
296.598694	1102.416138	7846.520508	3107.159180	29.725861
296.972931	1104.997192	8089.367676	3202.181885	30.026823
297.347107	1104.029297	8281.477539	3282.836914	30.356298
297.721283	1105.556274	8400.868164	3337.123291	30.589054
298.095367	1105.255249	8443.261719	3358.803223	30.710629
298.469452	1107.943848	8421.086914	3368.353027	30.908861
298.843475	1109.987061	8373.726563	3369.879883	31.111977
299.217529	1109.793457	8323.332031	3366.374268	31.282578
299.591492	1111.858276	8247.838867	3354.157715	31.422441
299.965424	1111.492554	8143.653320	3326.713379	31.501282
300.339325	1109.857910	7988.924805	3284.235107	31.608606
300.713196	1107.513550	7790.879395	3229.346680	31.747971
301.087036	1107.319946	7579.626953	3168.134521	31.840492
301.460815	1109.965454	7387.646973	3112.535889	31.899841
301.834564	1109.728882	7243.758301	3068.401611	31.931257
302.208282	1108.029785	7116.881348	3036.053711	32.086395
302.582001	1107.040527	7010.502930	3003.533447	32.125095
302.955658	1106.072632	6917.976074	2968.453613	32.044254
303.329254	1104.287354	6834.223145	2940.493164	32.045837
303.702820	1103.082886	6764.752930	2917.587158	32.048923
304.076416	1102.953857	6701.927734	2900.402100	32.103172
304.449921	1105.104614	6637.296387	2879.604248	32.075886
304.823395	1106.051025	6586.451172	2860.590820	32.014809
305.196838	1106.567261	6530.292480	2836.867432	31.902431
305.570251	1106.481201	6469.038574	2813.208740	31.826744
305.943604	1106.223145	6403.201660	2794.023438	31.863453
306.316986	1110.094604	6367.820801	2780.516602	31.770807
306.690277	1108.868652	6345.474609	2771.805664	31.756008
307.063507	1108.373901	6343.840332	2772.558594	31.786753
307.436768	1109.449341	6365.262207	2777.548584	31.738176
307.809937	1110.653809	6409.956055	2788.496338	31.661575
308.183136	1111.298950	6479.620117	2808.563232	31.616295
308.556244	1108.223511	6569.566895	2834.544922	31.609831
308.929321	1107.664185	6653.534180	2861.193604	31.618652
309.302399	1105.943481	6743.825195	2893.046631	31.698132
309.675446	1106.309082	6841.664551	2917.996094	31.588051
310.048401	1106.911377	6937.526367	2942.644287	31.484377
310.421356	1103.190552	7031.215820	2968.711914	31.469524
310.794281	1103.706543	7135.378418	3000.199463	31.442244
311.167145	1103.620728	7231.713867	3029.622803	31.429060
311.539978	1103.448608	7308.023926	3052.614746	31.414982
311.912781	1100.932129	7343.147949	3061.863281	31.414024
312.285553	1101.641846	7331.144043	3056.185059	31.375593
312.658295	1102.480591	7282.859375	3039.042969	31.334040
313.031006	1104.846558	7225.992188	3020.696777	31.298883
313.403656	1103.190308	7173.060547	2998.220947	31.220284
313.776276	1101.985962	7139.852051	2989.467041	31.260731
314.148865	1102.394653	7134.390137	2987.854004	31.257639
314.521454	1101.168701	7136.002930	2987.660400	31.260042
314.893982	1099.577148	7119.096680	2980.261719	31.243101
315.266449	1100.523438	7070.789551	2964.130859	31.214813
315.638885	1099.770752	7000.157715	2943.031494	31.239660
316.011322	1101.728027	6926.600098	2919.974609	31.215219
316.383667	1100.394409	6864.806641	2898.767822	31.197863
316.756042	1104.696045	6818.005859	2882.335693	31.114010
317.128326	1104.265869	6778.517578	2866.527100	31.057156
317.500610	1107.233887	6732.468750	2850.310303	30.986731
317.872833	1106.760864	6660.287598	2829.597900	31.022394
318.245087	1106.717773	6574.492188	2799.336182	30.956259
318.617218	1108.180298	6490.954590	2769.031250	30.854923
