Jaz Data File
++++++++++++++++++++++++++++++++++++
Date: Mon Apr 22 19:27:55 2019
User: jaz
Dark Spectrum Present: Yes
Reference Spectrum Present: Yes
Processed Spectrum Present: Yes
Spectrometers: JAZA2928
Integration Time (usec): 40000 (JAZA2928)
Spectra Averaged: 10 (JAZA2928)
Boxcar Smoothing: 5 (JAZA2928)
Correct for Electrical Dark: No (JAZA2928)
Strobe/Lamp Enabled: Yes (JAZA2928)
Correct for Detector Non-linearity: No (JAZA2928)
Correct for Stray Light: No (JAZA2928)
Number of Pixels in Processed Spectrum: 2048
>>>>>Begin Processed Spectral Data<<<<<
W	D	R	S	P
190.104553	0.000000	0.000000	0.000000	0.000000
190.488098	0.000000	0.000000	0.000000	0.000000
190.871613	1077.423828	1084.994751	1073.875000	-46.874447
191.255096	1080.499390	1079.079956	1073.638428	483.359131
191.638535	0.000000	0.000000	0.000000	0.000000
192.021942	903.294739	908.865295	893.142944	-182.240219
192.405334	1004.317993	1010.039124	993.219788	-193.986237
192.788696	1107.599609	1112.288330	1094.350586	-282.572235
193.172012	1111.471069	1116.052246	1098.996216	-272.306763
193.555313	1116.138306	1118.654663	1104.050659	-480.362854
193.938568	1122.375488	1122.956299	1108.373779	-2410.718750
194.321793	1125.386597	1126.505127	1110.911743	-1294.095825
194.704987	1126.655640	1129.473267	1112.546387	-500.749512
195.088150	1127.429810	1129.387207	1113.213135	-726.304932
195.471298	1126.505249	1131.710083	1116.310425	-195.872223
195.854401	1127.494629	1132.054199	1114.933838	-275.481903
196.237457	1129.064575	1128.957031	1113.707886	14279.455078
196.620499	1129.043091	1130.441040	1114.159668	-1064.661255
197.003494	1127.171875	1130.140137	1113.320801	-466.639252
197.386475	1126.999878	1131.129395	1112.159302	-359.378052
197.769424	1126.419067	1132.441406	1109.083618	-287.852448
198.152344	1123.365112	1134.527832	1107.061890	-146.050629
198.535217	1120.934570	1135.947266	1105.319824	-104.010277
198.918076	1121.149658	1138.098022	1105.233643	-93.908859
199.300903	1121.838013	1139.668091	1104.868042	-95.176086
199.683670	1123.838257	1144.421387	1103.556030	-98.538109
200.066422	1123.730591	1145.023560	1105.040161	-87.777473
200.449142	1121.967041	1147.884277	1106.782349	-58.589165
200.831848	1122.719849	1149.174683	1106.846802	-60.000553
201.214508	1123.537109	1149.002686	1108.266357	-59.966255
201.597137	1122.891846	1150.120972	1107.212524	-57.582905
201.979736	1122.612183	1152.874146	1107.470581	-50.035095
202.362274	1122.633789	1149.088623	1108.072754	-55.041115
202.744827	1121.257202	1147.625977	1107.814575	-50.979340
203.127319	1119.171021	1146.055908	1105.190674	-52.000763
203.509796	1116.525513	1142.786621	1103.728027	-48.731705
203.892227	1113.406860	1136.872070	1101.405151	-51.146820
204.274643	1110.567749	1137.151489	1100.717041	-37.055389
204.657013	1110.804321	1134.850342	1099.663208	-46.332462
205.039352	1108.223389	1132.441406	1099.018066	-38.010223
205.421661	1104.932617	1135.796753	1097.211304	-25.017105
205.803940	1103.964722	1135.516968	1095.942261	-25.425959
206.186188	1103.771118	1133.344727	1097.748901	-20.363483
206.568405	1101.921387	1134.248169	1098.845825	-9.513973
206.950592	1103.297974	1136.119263	1100.501831	-8.519296
207.332748	1101.340698	1133.882446	1102.867798	4.692740
207.714859	1099.964233	1136.269775	1104.523926	12.559218
208.096939	1099.598511	1137.732422	1106.567261	18.274418
208.478989	1098.695190	1137.280762	1107.879272	23.801855
208.861008	1098.931763	1138.291626	1105.212280	15.956655
209.243011	1099.318848	1140.765137	1103.556152	10.223604
209.624969	1098.652222	1139.410034	1105.556396	16.939512
210.006897	1098.480103	1140.377808	1108.588989	24.127542
210.388794	1097.469238	1141.345703	1106.717773	21.078579
210.770645	1097.426270	1141.603882	1105.427246	18.110929
211.152481	1097.146606	1140.549927	1104.136841	16.105299
211.534286	1097.404785	1143.152344	1102.050659	10.155457
211.916061	1097.490723	1141.238159	1100.458862	6.784717
212.297791	1097.985474	1142.119995	1101.727905	8.479602
212.679489	1097.125122	1143.195435	1100.996704	8.403638
213.061157	1093.662354	1142.313599	1104.222778	21.706381
213.442795	1093.812988	1142.786743	1105.298340	23.452055
213.824402	1094.071167	1142.829712	1101.985962	16.232632
214.205963	1094.823730	1141.496216	1100.028809	11.152349
214.587524	1093.705444	1141.195190	1098.867310	10.869431
214.969025	1094.952881	1142.937378	1098.566284	7.530356
215.350510	1093.554932	1145.948486	1100.544922	13.341317
215.731949	1092.823730	1144.572021	1103.104370	19.866627
216.113358	1092.221558	1147.841309	1105.298218	23.510820
216.494736	1093.361328	1147.239014	1105.577759	22.674379
216.876083	1093.124878	1145.324707	1107.147827	26.863976
217.257401	1094.823975	1146.765747	1107.255371	23.933331
217.638702	1094.910034	1149.389771	1109.685791	27.121565
218.019943	1095.791748	1151.841553	1112.632446	30.045954
218.401169	1094.006592	1152.142700	1113.492676	33.518040
218.782349	1094.372070	1154.788208	1117.084595	37.593472
219.163498	1094.436646	1158.272583	1118.654785	37.938095
219.544632	1098.286621	1158.659668	1117.665527	32.098606
219.925705	1102.416138	1162.423584	1117.321411	24.839039
220.306778	1103.104370	1163.929199	1119.966797	27.722933
220.687805	1101.082520	1168.661011	1120.138794	28.198727
221.068802	1101.770996	1176.640503	1120.203247	24.619169
221.449738	1101.985840	1182.598145	1121.708862	24.466516
221.830673	1099.340454	1186.620117	1122.138916	26.121162
222.211563	1098.394043	1191.932617	1124.547852	27.960453
222.592438	1098.759766	1200.084106	1127.709595	28.571445
222.973267	1099.060913	1206.730225	1129.301270	28.086329
223.354065	1097.727417	1211.655518	1132.376953	30.413511
223.734848	1093.791382	1217.828369	1134.011597	32.425983
224.115555	1090.436157	1228.302734	1138.872192	35.132542
224.496262	1092.694458	1238.497559	1140.678955	32.910477
224.876923	1092.178223	1246.498535	1143.432007	33.212597
225.257568	1091.016846	1255.639526	1147.131348	34.086739
225.638168	1088.113281	1265.554688	1152.379272	36.218147
226.018723	1090.479248	1277.147583	1159.821045	37.147060
226.399277	1092.328735	1291.923462	1166.402466	37.112068
226.779785	1094.759277	1309.861206	1173.134521	36.436329
227.160263	1093.726929	1333.046875	1181.845459	36.820389
227.540695	1093.103149	1363.351685	1194.126465	37.381634
227.921112	1091.984741	1408.217529	1212.903076	38.237129
228.301483	1092.501099	1466.525879	1236.024170	38.372612
228.681824	1092.006348	1543.460083	1266.199829	38.585014
229.062134	1095.339966	1631.212891	1301.214966	38.418625
229.442413	1095.404419	1713.438232	1333.218872	38.479198
229.822647	1099.469604	1782.349976	1357.286499	37.754330
230.202881	1100.846069	1832.011841	1373.869263	37.340805
230.583054	1100.674072	1871.651245	1387.462402	37.198032
230.963196	1098.372681	1904.106934	1400.324097	37.475311
231.343292	1097.576782	1930.819946	1411.056519	37.621639
231.723404	1097.146606	1946.348755	1415.121460	37.443954
232.103439	1098.372681	1940.670654	1412.669678	37.314228
232.483459	1098.630737	1913.054321	1401.399414	37.175823
232.863434	1096.802612	1867.650757	1381.633545	36.950329
233.243393	1091.662109	1814.934814	1359.222168	36.992970
233.623306	1092.909668	1767.294434	1339.821899	36.612961
234.003174	1092.242920	1737.763672	1327.519409	36.447548
234.383041	1089.382324	1724.880371	1323.325195	36.812523
234.762848	1090.930786	1717.675293	1319.453857	36.461918
235.142639	1091.855591	1711.932495	1317.001953	36.309425
235.522385	1094.135498	1708.491089	1315.087769	35.964882
235.902115	1095.834839	1710.212036	1314.291992	35.557495
236.281799	1095.641113	1716.384766	1315.367310	35.397251
236.661438	1096.178833	1729.009888	1318.357056	35.108616
237.041077	1095.576660	1740.946899	1323.411255	35.302929
237.420654	1098.458618	1747.033569	1326.379517	35.141796
237.800217	1097.963989	1755.550659	1329.476685	35.206417
238.179733	1098.351074	1761.530029	1332.143677	35.253319
238.559219	1100.372925	1769.509644	1333.412598	34.826916
238.938690	1098.265137	1782.220703	1337.047363	34.911949
239.318100	1096.630493	1800.158325	1340.617676	34.680531
239.697510	1097.017578	1821.687988	1346.661499	34.449306
240.076859	1097.168091	1847.260986	1356.963867	34.635147
240.456177	1098.178955	1891.976440	1370.169800	34.264515
240.835464	1096.651855	1948.263184	1389.312012	34.365459
241.214722	1097.275757	2024.745728	1414.153809	34.165855
241.593948	1097.963989	2132.092285	1449.426880	33.986393
241.973129	1097.856567	2259.333740	1490.098755	33.770977
242.352295	1097.297363	2406.750000	1539.330566	33.757099
242.731415	1097.856323	2553.327148	1587.121460	33.615593
243.110519	1095.877686	2674.417480	1625.986450	33.582222
243.489578	1095.877686	2769.440186	1655.925781	33.464428
243.868607	1096.049805	2835.943115	1678.078979	33.452003
244.247604	1097.684448	2886.035156	1692.897949	33.282818
244.626541	1098.910278	2917.953125	1704.598145	33.297066
245.005493	1099.792114	2945.719727	1711.179688	33.120884
245.384369	1100.114868	2970.948975	1717.481567	32.999542
245.763229	1100.609497	2998.909180	1725.740601	32.931107
246.142059	1102.760254	3052.937500	1742.817993	32.820492
246.520859	1102.351685	3154.261475	1771.101196	32.591568
246.899612	1100.889038	3308.366943	1818.612427	32.513275
247.278336	1101.942993	3494.518799	1879.372559	32.493416
247.657043	1102.394653	3664.540039	1935.745239	32.525497
248.035690	1101.405273	3803.309570	1981.363647	32.568081
248.414322	1100.867676	3921.002197	2019.626465	32.578545
248.792908	1099.297607	4008.367432	2046.662109	32.565891
249.171478	1099.835205	4061.642822	2063.502930	32.536472
249.550003	1101.104126	4068.827148	2066.299072	32.523079
249.928482	1100.588013	4035.661621	2055.028809	32.518459
250.306961	1099.620117	3942.724854	2026.208130	32.590710
250.685364	1099.362061	3780.747803	1974.782104	32.648045
251.063782	1100.652466	3577.324951	1912.322998	32.772625
251.442123	1101.168701	3379.536865	1850.982056	32.910107
251.820450	1102.416138	3241.261963	1808.976929	33.034679
252.198761	1102.201050	3168.177490	1783.726563	32.988056
252.576996	1101.276245	3111.740479	1765.401611	33.033432
252.955246	1101.921509	3063.153809	1750.560913	33.073051
253.333420	1101.039673	3017.792969	1740.323120	33.352413
253.711578	1100.437500	2990.306152	1731.182373	33.375065
254.089706	1100.308472	2965.872803	1722.170410	33.333717
254.467804	1098.716675	2948.537354	1716.148315	33.377918
254.845871	1099.856567	2933.202148	1714.169434	33.507751
255.223877	1098.996338	2907.005371	1704.168091	33.471722
255.601898	1100.480347	2870.334229	1686.682129	33.121479
255.979828	1098.265137	2818.026367	1665.453857	32.980667
256.357727	1098.630737	2763.826172	1646.397583	32.895050
256.735657	1098.480225	2741.457764	1636.761841	32.762566
257.113525	1098.071411	2758.492432	1640.956177	32.695610
257.491333	1098.480347	2812.197754	1653.645752	32.395390
257.869110	1097.835083	2891.799072	1683.111816	32.624775
258.246887	1097.684448	3007.146729	1721.030518	32.645111
258.624573	1097.232788	3174.092285	1773.359375	32.555241
259.002289	1097.275757	3402.142090	1842.873535	32.348854
259.379944	1098.566284	3704.265625	1937.874268	32.210472
259.757538	1098.415649	4068.052490	2054.254639	32.187069
260.135162	1099.318970	4428.032715	2169.774170	32.158222
260.512665	1100.760010	4715.939453	2262.366211	32.131355
260.890228	1099.792114	4904.715332	2323.685791	32.166054
261.267700	1101.147095	5016.622070	2357.431885	32.085117
261.645142	1101.942871	5083.039063	2378.079590	32.054909
262.022552	1103.211914	5120.677734	2383.542725	31.869116
262.399994	1102.717285	5125.904297	2381.456299	31.784229
262.777313	1103.857178	5080.715820	2365.368164	31.721292
263.154602	1104.911011	4961.216309	2324.094238	31.615320
263.531921	1102.824707	4760.159180	2254.752441	31.496374
263.909149	1102.459106	4480.791504	2165.214600	31.457989
264.286377	1101.491333	4192.583984	2072.020264	31.397600
264.663574	1099.878174	3972.277100	1996.849731	31.227262
265.040710	1101.921509	3845.767090	1951.812012	30.974428
265.417816	1099.168457	3795.782227	1933.572998	30.942678
265.794891	1099.340576	3797.803955	1932.776978	30.885592
266.171936	1099.104004	3841.508057	1945.402222	30.859720
266.548950	1099.921265	3899.708740	1961.016846	30.755747
266.925934	1101.383789	3954.425049	1974.696167	30.609875
267.302887	1100.329834	4020.368896	1994.913940	30.636032
267.679810	1102.308594	4091.776367	2017.561768	30.615923
268.056671	1102.652710	4176.216797	2040.467896	30.512304
268.433502	1101.749512	4266.658203	2063.201904	30.378519
268.810333	1101.684814	4350.517578	2087.290771	30.337233
269.187073	1099.039429	4426.677734	2109.293457	30.359491
269.563843	1101.362305	4488.276855	2125.811523	30.247271
269.940521	1100.588013	4541.895996	2136.393799	30.099188
270.317200	1099.899780	4605.710449	2152.180664	30.015339
270.693848	1099.146973	4713.035645	2183.603760	30.008030
271.070435	1097.705933	4884.304199	2230.104248	29.905426
271.447021	1095.856323	5082.371582	2285.638184	29.845161
271.823547	1093.920532	5251.705078	2329.256592	29.711401
272.200043	1092.931152	5382.043457	2366.013916	29.681730
272.576538	1096.501465	5496.100098	2396.168213	29.540575
272.952972	1096.630493	5606.415527	2428.946289	29.542778
273.329346	1099.641602	5698.835449	2454.046143	29.448738
273.705688	1097.490723	5766.155762	2472.607666	29.454178
274.082062	1094.221558	5809.837891	2483.791748	29.467415
274.458344	1094.049438	5806.568848	2479.748291	29.404629
274.834595	1093.060059	5748.755371	2459.853271	29.357445
275.210846	1093.748413	5652.141113	2428.085693	29.272100
275.587006	1095.361572	5538.041016	2392.253418	29.191658
275.963165	1096.135864	5473.688965	2374.272705	29.197517
276.339294	1095.920898	5444.265625	2362.142334	29.119619
276.715393	1094.329224	5440.265137	2360.744385	29.140217
277.091461	1093.942017	5437.361816	2356.829834	29.075886
277.467438	1092.931152	5444.867676	2358.378418	29.077797
277.843445	1094.372192	5460.289551	2363.604736	29.071383
278.219452	1097.361816	5481.604004	2368.981689	29.004326
278.595337	1097.275757	5513.521484	2378.724854	29.016708
278.971191	1097.318726	5547.805664	2386.510742	28.967438
279.347046	1096.716553	5572.969727	2394.339600	28.989046
279.722870	1095.727051	5607.189453	2400.598145	28.923462
280.098663	1096.953125	5631.234863	2403.910400	28.823910
280.474396	1098.222168	5683.004883	2415.180664	28.724556
280.850098	1099.727539	5749.679688	2429.526367	28.598118
281.225800	1099.770630	5852.595703	2451.357178	28.437540
281.601440	1099.125488	5983.816895	2485.576416	28.383593
281.977051	1098.996338	6153.665527	2528.463867	28.280142
282.352600	1100.265503	6314.695801	2572.942383	28.242336
282.728149	1102.996948	6448.454590	2607.355225	28.142742
283.103668	1104.007935	6547.198242	2631.616211	28.064575
283.479156	1102.588379	6633.079590	2652.135010	28.018246
283.854553	1102.502319	6720.380859	2677.020020	28.026909
284.229950	1098.480347	6819.877930	2706.572021	28.106625
284.605347	1096.501587	6916.750000	2732.166748	28.103012
284.980652	1094.888428	7007.728516	2757.094482	28.111805
285.355988	1092.500977	7095.331055	2781.097412	28.130005
285.731201	1094.243042	7173.210938	2801.508545	28.084793
286.106445	1094.888428	7234.551758	2814.348633	28.005775
286.481659	1094.802368	7309.464355	2829.296875	27.909716
286.856781	1091.490112	7380.248047	2844.072754	27.868504
287.231934	1093.942017	7436.878418	2860.634033	27.852903
287.607025	1097.254272	7468.667480	2866.978760	27.776012
287.982056	1100.114868	7471.699707	2860.956787	27.635855
288.357086	1103.577637	7457.009766	2852.525635	27.527609
288.732086	1104.201294	7427.049805	2842.739258	27.496119
289.107025	1104.373413	7399.476563	2831.103760	27.429739
289.481934	1106.137085	7369.988770	2820.070068	27.362286
289.856842	1104.395020	7367.579590	2812.692871	27.275229
290.231659	1103.276611	7383.409668	2814.800537	27.252989
290.606506	1102.717407	7399.583984	2814.929688	27.191496
290.981262	1104.029419	7420.532715	2820.457275	27.173702
291.355988	1103.341064	7460.408203	2829.727051	27.156956
291.730713	1101.276245	7499.531250	2840.352051	27.180471
292.105377	1100.996582	7523.040527	2850.568604	27.243227
292.480011	1102.115112	7531.126953	2858.698486	27.322760
292.854614	1101.340698	7544.418945	2867.839355	27.417000
293.229187	1102.093628	7573.949707	2883.927246	27.532034
293.603729	1104.115356	7617.632324	2909.048584	27.710577
293.978241	1103.771240	7652.840332	2931.481445	27.907938
294.352692	1101.964478	7681.683105	2955.699463	28.173468
294.727081	1101.061035	7708.525391	2984.993652	28.512188
295.101501	1098.609253	7761.865234	3020.632080	28.845100
295.475830	1095.512085	7848.133301	3064.702393	29.161865
295.850189	1095.038940	7991.893555	3130.172607	29.508142
296.224457	1091.683716	8203.381836	3214.613281	29.851234
296.598694	1089.403809	8463.350586	3310.926514	30.126644
296.972931	1089.016602	8729.597656	3415.541504	30.449581
297.347107	1088.586426	8935.946289	3501.165039	30.743826
297.721283	1087.898071	9061.037109	3559.193604	30.995262
298.095367	1089.769409	9098.051758	3592.832031	31.255922
298.469452	1092.737427	9080.931641	3605.500244	31.455954
298.843475	1092.199707	9037.636719	3609.500732	31.682348
299.217529	1094.587158	8972.337891	3604.274902	31.857922
299.591492	1096.436890	8892.672852	3593.112305	32.024113
299.965424	1098.135864	8774.442383	3565.732178	32.145618
300.339325	1102.179565	8594.958008	3521.425781	32.287704
300.713196	1103.513062	8374.263672	3459.202881	32.399544
301.087036	1105.448730	8138.126465	3387.473389	32.448872
301.460815	1104.975586	7937.585938	3326.691650	32.516357
301.834564	1103.771118	7774.533203	3280.428223	32.629814
302.208282	1103.125854	7649.119141	3236.551514	32.591324
302.582001	1103.297974	7531.814453	3199.149170	32.602406
302.955658	1103.297974	7423.306641	3162.090820	32.575794
303.329254	1100.889038	7332.241699	3129.075928	32.548100
303.702820	1101.276245	7248.747070	3103.137451	32.563980
304.076416	1100.910645	7176.007813	3080.295410	32.581944
304.449921	1099.491089	7122.452637	3057.174805	32.503674
304.823395	1099.749146	7062.165527	3038.290527	32.512680
305.196838	1099.426636	7003.878418	3017.814697	32.490536
305.570251	1097.921021	6932.858887	2993.983643	32.494991
305.943604	1096.479980	6870.485840	2970.109863	32.449394
306.316986	1096.350952	6825.146973	2959.915039	32.529770
306.690277	1094.759399	6800.218750	2952.258057	32.556515
307.063507	1094.200073	6800.971680	2951.225830	32.540741
307.436768	1095.038940	6830.372070	2959.829102	32.514069
307.809937	1092.328979	6880.078125	2970.583008	32.452236
308.183136	1093.081665	6951.484375	2991.682617	32.408165
308.556244	1091.640747	7039.259277	3025.170410	32.509308
308.929321	1092.802002	7145.702637	3056.056152	32.434933
309.302399	1091.963379	7244.488770	3086.059570	32.411018
309.675446	1093.597778	7353.104492	3118.020508	32.341568
310.048401	1095.167969	7449.568359	3152.498291	32.376465
310.421356	1093.662354	7553.624512	3180.996338	32.311863
310.794281	1094.049438	7670.606445	3216.656494	32.275352
311.167145	1096.264771	7784.168945	3254.252930	32.267033
311.539978	1100.437378	7864.242676	3277.911621	32.193035
311.912781	1102.588135	7910.098145	3288.708740	32.113369
312.285553	1101.147095	7899.667480	3284.536133	32.115650
312.658295	1102.308472	7851.940430	3263.630371	32.021328
313.031006	1101.254639	7786.728027	3239.971680	31.990509
313.403656	1101.792358	7728.354980	3220.571045	31.974026
313.776276	1101.663208	7684.435547	3207.515625	31.990358
314.148865	1102.029053	7688.415527	3198.288818	31.827158
314.521454	1105.040161	7694.351563	3199.278320	31.782354
314.893982	1103.147583	7677.596680	3196.266602	31.837179
315.266449	1101.018311	7620.212891	3173.941650	31.797232
315.638885	1095.899292	7539.772949	3149.293701	31.865841
316.011322	1094.544189	7452.429199	3123.914063	31.918947
316.383667	1094.759277	7385.065430	3098.340820	31.851892
316.756042	1094.458130	7327.316895	3077.585693	31.817303
317.128326	1094.049561	7277.848145	3060.744629	31.803995
317.500610	1094.329102	7220.959473	3041.603027	31.783768
317.872833	1094.157104	7145.443848	3015.126465	31.744808
318.245087	1094.608643	7047.453613	2985.681885	31.767555
