Jaz Data File
++++++++++++++++++++++++++++++++++++
Date: Mon Apr 22 19:27:22 2019
User: jaz
Dark Spectrum Present: Yes
Reference Spectrum Present: Yes
Processed Spectrum Present: Yes
Spectrometers: JAZA2928
Integration Time (usec): 40000 (JAZA2928)
Spectra Averaged: 10 (JAZA2928)
Boxcar Smoothing: 5 (JAZA2928)
Correct for Electrical Dark: No (JAZA2928)
Strobe/Lamp Enabled: Yes (JAZA2928)
Correct for Detector Non-linearity: No (JAZA2928)
Correct for Stray Light: No (JAZA2928)
Number of Pixels in Processed Spectrum: 2048
>>>>>Begin Processed Spectral Data<<<<<
W	D	R	S	P
190.104553	0.000000	0.000000	0.000000	0.000000
190.488098	0.000000	0.000000	0.000000	0.000000
190.871613	1077.423828	1084.994751	1058.023682	-256.245453
191.255096	1080.499390	1079.079956	1073.875000	466.692474
191.638535	0.000000	0.000000	0.000000	0.000000
192.021942	903.294739	908.865295	889.873779	-240.926727
192.405334	1004.317993	1010.039124	990.789490	-236.465561
192.788696	1107.599609	1112.288330	1092.565552	-320.643066
193.172012	1111.471069	1116.052246	1098.372681	-285.917572
193.555313	1116.138306	1118.654663	1104.136841	-476.937988
193.938568	1122.375488	1122.956299	1107.857544	-2499.600586
194.321793	1125.386597	1126.505127	1110.524780	-1328.691528
194.704987	1126.655640	1129.473267	1112.223755	-512.200012
195.088150	1127.429810	1129.387207	1113.621948	-705.419373
195.471298	1126.505249	1131.710083	1114.654175	-227.693604
195.854401	1127.494629	1132.054199	1115.880249	-254.725311
196.237457	1129.064575	1128.957031	1117.988037	10299.545898
196.620499	1129.043091	1130.441040	1116.633057	-887.731384
197.003494	1127.171875	1130.140137	1115.192017	-403.598450
197.386475	1126.999878	1131.129395	1114.052002	-313.544586
197.769424	1126.419067	1132.441406	1110.374146	-266.423431
198.152344	1123.365112	1134.527832	1110.890381	-111.753510
198.535217	1120.934570	1135.947266	1110.352661	-70.486404
198.918076	1121.149658	1138.098022	1110.782715	-61.167812
199.300903	1121.838013	1139.668091	1110.266724	-64.897575
199.683670	1123.838257	1144.421387	1111.406616	-60.397232
200.066422	1123.730591	1145.023560	1111.256104	-58.585007
200.449142	1121.967041	1147.884277	1112.481934	-36.597679
200.831848	1122.719849	1149.174683	1115.321045	-27.967682
201.214508	1123.537109	1149.002686	1116.310425	-28.378248
201.597137	1122.891846	1150.120972	1116.030762	-25.197592
201.979736	1122.612183	1152.874146	1116.783447	-19.260929
202.362274	1122.633789	1149.088623	1116.353394	-23.740068
202.744827	1121.257202	1147.625977	1112.438965	-33.441967
203.127319	1119.171021	1146.055908	1112.998169	-22.960302
203.509796	1116.525513	1142.786621	1113.191772	-12.694591
203.892227	1113.406860	1136.872070	1112.761597	-2.749874
204.274643	1110.567749	1137.151489	1112.288452	6.472765
204.657013	1110.804321	1134.850342	1108.567505	-9.302231
205.039352	1108.223389	1132.441406	1106.072510	-8.881317
205.421661	1104.932617	1135.796753	1103.534668	-4.529365
205.803940	1103.964722	1135.516968	1103.599121	-1.158715
206.186188	1103.771118	1133.344727	1103.384033	-1.308887
206.568405	1101.921387	1134.248169	1101.663452	-0.797897
206.950592	1103.297974	1136.119263	1104.696045	4.259648
207.332748	1101.340698	1133.882446	1102.566772	3.767696
207.714859	1099.964233	1136.269775	1103.212036	8.945749
208.096939	1099.598511	1137.732422	1101.082642	3.891893
208.478989	1098.695190	1137.280762	1099.770630	2.787154
208.861008	1098.931763	1138.291626	1101.835449	7.377278
209.243011	1099.318848	1140.765137	1103.749634	10.690429
209.624969	1098.652222	1139.410034	1107.642700	22.058294
210.006897	1098.480103	1140.377808	1107.040405	20.431437
210.388794	1097.469238	1141.345703	1106.846802	21.372650
210.770645	1097.426270	1141.603882	1105.147583	17.477888
211.152481	1097.146606	1140.549927	1104.975586	18.037743
211.534286	1097.404785	1143.152344	1106.739136	20.404041
211.916061	1097.490723	1141.238159	1106.846802	21.386578
212.297791	1097.985474	1142.119995	1109.234131	25.487207
212.679489	1097.125122	1143.195435	1108.588989	24.883415
213.061157	1093.662354	1142.313599	1108.180298	29.840849
213.442795	1093.812988	1142.786743	1105.448730	23.759138
213.824402	1094.071167	1142.829712	1101.942993	16.144506
214.205963	1094.823730	1141.496216	1102.072021	15.530116
214.587524	1093.705444	1141.195190	1102.480591	18.477982
214.969025	1094.952881	1142.937378	1103.814087	18.466810
215.350510	1093.554932	1145.948486	1105.319702	22.454615
215.731949	1092.823730	1144.572021	1104.437988	22.443752
216.113358	1092.221558	1147.841309	1103.642090	20.533232
216.494736	1093.361328	1147.239014	1102.566650	17.085594
216.876083	1093.124878	1145.324707	1104.222778	21.260416
217.257401	1094.823975	1146.765747	1102.889404	15.527829
217.638702	1094.910034	1149.389771	1103.943237	16.580849
218.019943	1095.791748	1151.841553	1105.190674	16.768883
218.401169	1094.006592	1152.142700	1105.835938	20.347673
218.782349	1094.372070	1154.788208	1107.276978	21.360033
219.163498	1094.436646	1158.272583	1107.535034	20.518831
219.544632	1098.286621	1158.659668	1106.846802	14.178812
219.925705	1102.416138	1162.423584	1109.513794	11.827959
220.306778	1103.104370	1163.929199	1110.180542	11.633690
220.687805	1101.082520	1168.661011	1113.643433	18.587147
221.068802	1101.770996	1176.640503	1114.589722	17.121424
221.449738	1101.985840	1182.598145	1116.589966	18.116497
221.830673	1099.340454	1186.620117	1119.450562	23.041000
222.211563	1098.394043	1191.932617	1123.773682	27.132805
222.592438	1098.759766	1200.084106	1125.365234	26.257727
222.973267	1099.060913	1206.730225	1124.719849	23.831244
223.354065	1097.727417	1211.655518	1126.655640	25.391649
223.734848	1093.791382	1217.828369	1126.806152	26.616875
224.115555	1090.436157	1228.302734	1128.247192	27.425817
224.496262	1092.694458	1238.497559	1130.527100	25.947762
224.876923	1092.178223	1246.498535	1130.075439	24.557505
225.257568	1091.016846	1255.639526	1132.764038	25.359320
225.638168	1088.113281	1265.554688	1133.817993	25.757637
226.018723	1090.479248	1277.147583	1134.914917	23.804609
226.399277	1092.328735	1291.923462	1136.506470	22.133718
226.779785	1094.759277	1309.861206	1142.141602	22.027847
227.160263	1093.726929	1333.046875	1148.615356	22.935165
227.540695	1093.103149	1363.351685	1156.831543	23.581402
227.921112	1091.984741	1408.217529	1170.403076	24.797661
228.301483	1092.501099	1466.525879	1186.340576	25.089108
228.681824	1092.006348	1543.460083	1207.267822	25.531181
229.062134	1095.339966	1631.212891	1228.990967	24.940802
229.442413	1095.404419	1713.438232	1251.574341	25.268831
229.822647	1099.469604	1782.349976	1270.759521	25.083445
230.202881	1100.846069	1832.011841	1284.739746	25.150751
230.583054	1100.674072	1871.651245	1294.504395	25.140863
230.963196	1098.372681	1904.106934	1301.666626	25.230892
231.343292	1097.576782	1930.819946	1309.925781	25.484638
231.723404	1097.146606	1946.348755	1313.151978	25.436272
232.103439	1098.372681	1940.670654	1310.700073	25.208109
232.483459	1098.630737	1913.054321	1299.494385	24.663290
232.863434	1096.802612	1867.650757	1286.374512	24.592638
233.243393	1091.662109	1814.934814	1270.953247	24.788872
233.623306	1092.909668	1767.294434	1254.908203	24.021677
234.003174	1092.242920	1737.763672	1247.165405	23.999613
234.383041	1089.382324	1724.880371	1241.788208	23.982117
234.762848	1090.930786	1717.675293	1237.207031	23.339054
235.142639	1091.855591	1711.932495	1234.002441	22.924068
235.522385	1094.135498	1708.491089	1230.711670	22.230801
235.902115	1095.834839	1710.212036	1230.410400	21.904387
236.281799	1095.641113	1716.384766	1230.410645	21.710979
236.661438	1096.178833	1729.009888	1234.669067	21.884235
237.041077	1095.576660	1740.946899	1236.798340	21.882273
237.420654	1098.458618	1747.033569	1240.519287	21.903509
237.800217	1097.963989	1755.550659	1243.723999	22.165901
238.179733	1098.351074	1761.530029	1244.197144	21.991962
238.559219	1100.372925	1769.509644	1247.552368	21.995422
238.938690	1098.265137	1782.220703	1250.972168	22.327040
239.318100	1096.630493	1800.158325	1255.037109	22.516041
239.697510	1097.017578	1821.687988	1260.801270	22.601130
240.076859	1097.168091	1847.260986	1265.533081	22.445885
240.456177	1098.178955	1891.976440	1275.706421	22.364326
240.835464	1096.651855	1948.263184	1287.815552	22.447294
241.214722	1097.275757	2024.745728	1305.129395	22.410822
241.593948	1097.963989	2132.092285	1326.981567	22.145954
241.973129	1097.856567	2259.333740	1352.662231	21.938068
242.352295	1097.297363	2406.750000	1381.655151	21.715775
242.731415	1097.856323	2553.327148	1411.443848	21.545435
243.110519	1095.877686	2674.417480	1437.382446	21.634220
243.489578	1095.877686	2769.440186	1455.169678	21.468693
243.868607	1096.049805	2835.943115	1467.515137	21.349892
244.247604	1097.684448	2886.035156	1479.237061	21.335447
244.626541	1098.910278	2917.953125	1487.560669	21.365654
245.005493	1099.792114	2945.719727	1492.636597	21.281685
245.384369	1100.114868	2970.948975	1496.529419	21.189188
245.763229	1100.609497	2998.909180	1502.487183	21.170403
246.142059	1102.760254	3052.937500	1515.069458	21.142139
246.520859	1102.351685	3154.261475	1538.513306	21.256376
246.899612	1100.889038	3308.366943	1567.979248	21.159451
247.278336	1101.942993	3494.518799	1606.091431	21.071369
247.657043	1102.394653	3664.540039	1642.913208	21.096325
248.035690	1101.405273	3803.309570	1671.669556	21.106014
248.414322	1100.867676	3921.002197	1693.177368	21.002888
248.792908	1099.297607	4008.367432	1711.093628	21.030642
249.171478	1099.835205	4061.642822	1721.417603	20.986589
249.550003	1101.104126	4068.827148	1723.052246	20.957081
249.928482	1100.588013	4035.661621	1719.524902	21.087610
250.306961	1099.620117	3942.724854	1699.350342	21.094200
250.685364	1099.362061	3780.747803	1666.120239	21.136765
251.063782	1100.652466	3577.324951	1627.706909	21.280750
251.442123	1101.168701	3379.536865	1588.863403	21.405439
251.820450	1102.416138	3241.261963	1561.268799	21.453285
252.198761	1102.201050	3168.177490	1547.611206	21.559303
252.576996	1101.276245	3111.740479	1537.244141	21.684937
252.955246	1101.921509	3063.153809	1525.436279	21.594320
253.333420	1101.039673	3017.792969	1516.574951	21.679121
253.711578	1100.437500	2990.306152	1509.283691	21.633577
254.089706	1100.308472	2965.872803	1501.519409	21.506144
254.467804	1098.716675	2948.537354	1494.443359	21.392706
254.845871	1099.856567	2933.202148	1490.249268	21.294004
255.223877	1098.996338	2907.005371	1483.065552	21.242661
255.601898	1100.480347	2870.334229	1474.268677	21.119728
255.979828	1098.265137	2818.026367	1461.772339	21.137074
256.357727	1098.630737	2763.826172	1450.308594	21.119314
256.735657	1098.480225	2741.457764	1448.545044	21.306732
257.113525	1098.071411	2758.492432	1450.953979	21.252596
257.491333	1098.480347	2812.197754	1463.213379	21.283150
257.869110	1097.835083	2891.799072	1481.860840	21.406548
258.246887	1097.684448	3007.146729	1505.670288	21.366531
258.624573	1097.232788	3174.092285	1541.373779	21.385221
259.002289	1097.275757	3402.142090	1586.562134	21.228407
259.379944	1098.566284	3704.265625	1650.914185	21.197685
259.757538	1098.415649	4068.052490	1726.063354	21.135504
260.135162	1099.318970	4428.032715	1802.115723	21.113163
260.512665	1100.760010	4715.939453	1858.939941	20.972124
260.890228	1099.792114	4904.715332	1894.363770	20.882725
261.267700	1101.147095	5016.622070	1917.420410	20.847363
261.645142	1101.942871	5083.039063	1928.712158	20.767378
262.022552	1103.211914	5120.677734	1934.433228	20.690189
262.399994	1102.717285	5125.904297	1931.142578	20.591270
262.777313	1103.857178	5080.715820	1920.818481	20.542881
263.154602	1104.911011	4961.216309	1894.729370	20.481220
263.531921	1102.824707	4760.159180	1850.809814	20.451647
263.909149	1102.459106	4480.791504	1789.060425	20.323675
264.286377	1101.491333	4192.583984	1730.106934	20.336355
264.663574	1099.878174	3972.277100	1684.294556	20.345934
265.040710	1101.921509	3845.767090	1655.043701	20.158648
265.417816	1099.168457	3795.782227	1642.289551	20.140856
265.794891	1099.340576	3797.803955	1643.644531	20.170885
266.171936	1099.104004	3841.508057	1652.269165	20.170813
266.548950	1099.921265	3899.708740	1664.700806	20.172228
266.925934	1101.383789	3954.425049	1676.487183	20.157557
267.302887	1100.329834	4020.368896	1688.854370	20.154680
267.679810	1102.308594	4091.776367	1698.167480	19.931938
268.056671	1102.652710	4176.216797	1712.943481	19.856127
268.433502	1101.749512	4266.658203	1725.912598	19.721361
268.810333	1101.684814	4350.517578	1741.871582	19.705132
269.187073	1099.039429	4426.677734	1756.239014	19.749731
269.563843	1101.362305	4488.276855	1768.735229	19.704451
269.940521	1100.588013	4541.895996	1777.897705	19.681751
270.317200	1099.899780	4605.710449	1787.812866	19.622084
270.693848	1099.146973	4713.035645	1806.331299	19.568514
271.070435	1097.705933	4884.304199	1835.216675	19.476868
271.447021	1095.856323	5082.371582	1869.909058	19.416777
271.823547	1093.920532	5251.705078	1901.310913	19.418764
272.200043	1092.931152	5382.043457	1927.873413	19.466551
272.576538	1096.501465	5496.100098	1948.714722	19.370251
272.952972	1096.630493	5606.415527	1967.469482	19.309988
273.329346	1099.641602	5698.835449	1986.353638	19.279728
273.705688	1097.490723	5766.155762	1998.226074	19.293209
274.082062	1094.221558	5809.837891	2002.484741	19.260754
274.458344	1094.049438	5806.568848	2000.914551	19.243742
274.834595	1093.060059	5748.755371	1991.902710	19.306303
275.210846	1093.748413	5652.141113	1974.287598	19.316879
275.587006	1095.361572	5538.041016	1954.026978	19.327646
275.963165	1096.135864	5473.688965	1941.767578	19.317451
276.339294	1095.920898	5444.265625	1935.487061	19.307718
276.715393	1094.329224	5440.265137	1934.411621	19.330297
277.091461	1093.942017	5437.361816	1933.787964	19.336052
277.467438	1092.931152	5444.867676	1935.745361	19.366417
277.843445	1094.372192	5460.289551	1939.057495	19.347258
278.219452	1097.361816	5481.604004	1946.327271	19.364017
278.595337	1097.275757	5513.521484	1953.037598	19.377586
278.971191	1097.318726	5547.805664	1959.963013	19.383144
279.347046	1096.716553	5572.969727	1967.297363	19.448874
279.722870	1095.727051	5607.189453	1973.513306	19.456800
280.098663	1096.953125	5631.234863	1977.599731	19.421965
280.474396	1098.222168	5683.004883	1986.633179	19.377386
280.850098	1099.727539	5749.679688	1997.688232	19.311182
281.225800	1099.770630	5852.595703	2015.905518	19.275585
281.601440	1099.125488	5983.816895	2040.015991	19.262026
281.977051	1098.996338	6153.665527	2069.546631	19.201065
282.352600	1100.265503	6314.695801	2096.775879	19.110628
282.728149	1102.996948	6448.454590	2119.273438	19.011965
283.103668	1104.007935	6547.198242	2133.748291	18.917955
283.479156	1102.588379	6633.079590	2144.265625	18.835167
283.854553	1102.502319	6720.380859	2160.869873	18.839275
284.229950	1098.480347	6819.877930	2179.947510	18.902151
284.605347	1096.501587	6916.750000	2197.670166	18.919615
284.980652	1094.888428	7007.728516	2215.027100	18.944174
285.355988	1092.500977	7095.331055	2228.448242	18.923529
285.731201	1094.243042	7173.210938	2239.073242	18.832642
286.106445	1094.888428	7234.551758	2249.160400	18.800249
286.481659	1094.802368	7309.464355	2261.355469	18.770983
286.856781	1091.490112	7380.248047	2272.173828	18.774513
287.231934	1093.942017	7436.878418	2279.357666	18.688751
287.607025	1097.254272	7468.667480	2287.358643	18.678814
287.982056	1100.114868	7471.699707	2282.734131	18.560833
288.357086	1103.577637	7457.009766	2273.228027	18.409740
288.732086	1104.201294	7427.049805	2263.527588	18.335506
289.107025	1104.373413	7399.476563	2253.999756	18.262232
289.481934	1106.137085	7369.988770	2246.880615	18.211535
289.856842	1104.395020	7367.579590	2243.439209	18.186342
290.231659	1103.276611	7383.409668	2246.665771	18.206450
290.606506	1102.717407	7399.583984	2246.816162	18.169334
290.981262	1104.029419	7420.532715	2252.451172	18.181290
291.355988	1103.341064	7460.408203	2262.559814	18.235119
291.730713	1101.276245	7499.531250	2266.818604	18.216566
292.105377	1100.996582	7523.040527	2276.196045	18.299461
292.480011	1102.115112	7531.126953	2289.552490	18.469982
292.854614	1101.340698	7544.418945	2300.908936	18.617937
293.229187	1102.093628	7573.949707	2315.856934	18.754486
293.603729	1104.115356	7617.632324	2339.967285	18.973650
293.978241	1103.771240	7652.840332	2366.831055	19.286097
294.352692	1101.964478	7681.683105	2390.511230	19.583614
294.727081	1101.061035	7708.525391	2420.020264	19.961655
295.101501	1098.609253	7761.865234	2453.680420	20.336472
295.475830	1095.512085	7848.133301	2492.265869	20.684616
295.850189	1095.038940	7991.893555	2549.412598	21.087492
296.224457	1091.683716	8203.381836	2618.259766	21.465704
296.598694	1089.403809	8463.350586	2695.753174	21.784119
296.972931	1089.016602	8729.597656	2776.817383	22.089952
297.347107	1088.586426	8935.946289	2847.298828	22.411518
297.721283	1087.898071	9061.037109	2893.992920	22.652243
298.095367	1089.769409	9098.051758	2922.791992	22.889086
298.469452	1092.737427	9080.931641	2937.116455	23.088810
298.843475	1092.199707	9037.636719	2942.471680	23.287228
299.217529	1094.587158	8972.337891	2944.128174	23.478033
299.591492	1096.436890	8892.672852	2940.299805	23.650682
299.965424	1098.135864	8774.442383	2924.426758	23.791271
300.339325	1102.179565	8594.958008	2894.272461	23.917603
300.713196	1103.513062	8374.263672	2851.364258	24.039488
301.087036	1105.448730	8138.126465	2804.218750	24.155380
301.460815	1104.975586	7937.585938	2761.589600	24.245697
301.834564	1103.771118	7774.533203	2731.542969	24.401587
302.208282	1103.125854	7649.119141	2704.163086	24.458279
302.582001	1103.297974	7531.814453	2679.170410	24.513781
302.955658	1103.297974	7423.306641	2656.071045	24.569160
303.329254	1100.889038	7332.241699	2630.992432	24.554916
303.702820	1101.276245	7248.747070	2613.936768	24.606226
304.076416	1100.910645	7176.007813	2592.299805	24.549223
304.449921	1099.491089	7122.452637	2577.093506	24.532822
304.823395	1099.749146	7062.165527	2562.575928	24.534126
305.196838	1099.426636	7003.878418	2546.444824	24.507240
305.570251	1097.921021	6932.858887	2530.614990	24.553713
305.943604	1096.479980	6870.485840	2512.074707	24.516684
306.316986	1096.350952	6825.146973	2497.535156	24.458616
306.690277	1094.759399	6800.218750	2490.243896	24.458757
307.063507	1094.200073	6800.971680	2488.308105	24.429014
307.436768	1095.038940	6830.372070	2494.653076	24.403362
307.809937	1092.328979	6880.078125	2504.353271	24.396778
308.183136	1093.081665	6951.484375	2525.323730	24.447655
308.556244	1091.640747	7039.259277	2546.552490	24.462088
308.929321	1092.802002	7145.702637	2568.340088	24.377373
309.302399	1091.963379	7244.488770	2592.601074	24.390598
309.675446	1093.597778	7353.104492	2612.409912	24.264086
310.048401	1095.167969	7449.568359	2638.004150	24.279808
310.421356	1093.662354	7553.624512	2662.200928	24.280926
310.794281	1094.049438	7670.606445	2686.375732	24.212156
311.167145	1096.264771	7784.168945	2708.765869	24.110708
311.539978	1100.437378	7864.242676	2729.155273	24.079906
311.912781	1102.588135	7910.098145	2737.973633	24.023256
312.285553	1101.147095	7899.667480	2734.338867	24.022753
312.658295	1102.308472	7851.940430	2721.541504	23.989946
313.031006	1101.254639	7786.728027	2706.292236	24.007837
313.403656	1101.792358	7728.354980	2691.623779	23.991796
313.776276	1101.663208	7684.435547	2684.224854	24.040958
314.148865	1102.029053	7688.415527	2678.310303	23.932413
314.521454	1105.040161	7694.351563	2679.213867	23.889805
314.893982	1103.147583	7677.596680	2675.406494	23.914686
315.266449	1101.018311	7620.212891	2664.287354	23.979483
315.638885	1095.899292	7539.772949	2643.768555	24.020788
316.011322	1094.544189	7452.429199	2622.325195	24.029705
316.383667	1094.759277	7385.065430	2604.365723	23.998934
316.756042	1094.458130	7327.316895	2589.396240	23.984791
317.128326	1094.049561	7277.848145	2579.975586	24.029339
317.500610	1094.329102	7220.959473	2565.436523	24.011688
317.872833	1094.157104	7145.443848	2550.552734	24.067537
318.245087	1094.608643	7047.453613	2528.163086	24.081839
