Jaz Data File
++++++++++++++++++++++++++++++++++++
Date: Mon Apr 22 19:24:56 2019
User: jaz
Dark Spectrum Present: Yes
Reference Spectrum Present: Yes
Processed Spectrum Present: Yes
Spectrometers: JAZA2928
Integration Time (usec): 40000 (JAZA2928)
Spectra Averaged: 10 (JAZA2928)
Boxcar Smoothing: 5 (JAZA2928)
Correct for Electrical Dark: No (JAZA2928)
Strobe/Lamp Enabled: Yes (JAZA2928)
Correct for Detector Non-linearity: No (JAZA2928)
Correct for Stray Light: No (JAZA2928)
Number of Pixels in Processed Spectrum: 2048
>>>>>Begin Processed Spectral Data<<<<<
W	D	R	S	P
190.104553	0.000000	0.000000	0.000000	0.000000
190.488098	0.000000	0.000000	0.000000	0.000000
190.871613	1085.940918	1056.130981	1065.357666	69.048294
191.255096	1070.326050	1101.319336	1070.799438	1.527391
191.638535	0.000000	0.000000	0.000000	0.000000
192.021942	909.790100	910.671936	899.229736	-1197.542969
192.405334	1011.974854	1014.813904	1001.844666	-356.816071
192.788696	1115.987793	1119.256958	1103.384155	-385.530792
193.172012	1123.859741	1125.967529	1109.729004	-670.406006
193.555313	1129.924927	1129.688354	1114.912476	6345.820313
193.938568	1131.301514	1135.388062	1117.450317	-338.946136
194.321793	1133.688843	1137.689331	1118.181763	-387.629669
194.704987	1135.775146	1138.614136	1121.192627	-513.651794
195.088150	1136.871948	1135.818115	1122.719849	1342.916748
195.471298	1134.785767	1136.377319	1125.343750	-593.258179
195.854401	1133.774902	1137.474121	1128.419312	-144.776260
196.237457	1133.538208	1135.990112	1129.731323	-155.262375
196.620499	1134.333984	1133.925415	1129.129028	1273.946777
197.003494	1134.441528	1132.763916	1130.053955	261.536774
197.386475	1128.849487	1133.882446	1128.032227	-16.238176
197.769424	1126.268555	1133.516724	1128.268799	27.596544
198.152344	1126.440552	1134.656738	1131.344604	59.687698
198.535217	1125.193237	1135.603027	1135.194458	96.075142
198.918076	1121.085083	1139.818726	1133.559814	66.589996
199.300903	1118.375122	1144.485840	1133.366211	57.413548
199.683670	1118.031006	1145.217163	1132.398315	52.847885
200.066422	1119.235474	1145.432251	1133.817871	55.664852
200.449142	1119.106567	1147.733643	1135.431030	57.024559
200.831848	1116.633057	1148.787476	1137.022583	63.411274
201.214508	1114.181152	1148.873535	1135.560059	61.624207
201.597137	1114.589722	1148.615356	1137.044067	65.992439
201.979736	1114.503662	1149.647827	1138.334595	67.809074
202.362274	1113.815308	1148.249878	1136.054688	64.584457
202.744827	1111.922729	1148.228271	1132.376831	56.338787
203.127319	1111.621582	1146.314087	1133.366089	62.677822
203.509796	1112.202271	1145.088013	1133.129639	63.636600
203.892227	1112.417480	1143.130737	1131.731567	62.885181
204.274643	1109.793457	1141.022949	1130.419556	66.046860
204.657013	1108.890137	1140.205688	1128.892456	63.873436
205.039352	1109.492310	1139.797119	1128.698975	63.378273
205.421661	1111.212891	1139.861572	1129.623901	64.264778
205.803940	1110.331177	1139.904541	1128.569946	61.672962
206.186188	1110.911865	1139.388428	1128.032104	60.120457
206.568405	1111.772217	1138.528198	1128.440796	62.298515
206.950592	1114.116577	1138.958252	1128.806519	59.134262
207.332748	1113.793945	1135.925659	1128.569946	66.763924
207.714859	1111.815186	1136.205322	1127.860229	65.784966
208.096939	1107.836182	1135.409546	1126.354614	67.160583
208.478989	1107.728638	1133.839355	1124.139282	62.850224
208.861008	1107.492065	1134.570679	1123.042480	57.426926
209.243011	1105.169067	1134.936401	1119.299927	47.471027
209.624969	1102.717163	1136.334351	1118.396606	46.641151
210.006897	1102.502075	1134.678223	1120.697998	56.550968
210.388794	1100.716919	1135.990234	1119.235474	52.500183
210.770645	1099.297363	1136.828979	1119.020386	52.550423
211.152481	1097.834839	1136.893555	1119.644043	55.836971
211.534286	1097.791870	1140.657349	1119.385986	50.376472
211.916061	1099.103882	1141.130615	1119.106323	47.594566
212.297791	1100.114746	1145.475220	1120.827026	45.661518
212.679489	1101.383667	1147.733521	1121.085083	42.505886
213.061157	1101.878418	1147.475464	1122.010010	44.151089
213.442795	1104.115234	1147.819580	1123.859619	45.177166
213.824402	1103.556152	1147.970215	1124.182251	46.440468
214.205963	1105.169067	1150.508057	1123.924194	41.366444
214.587524	1106.975830	1149.475708	1124.483398	41.194397
214.969025	1105.685425	1149.948853	1122.483154	37.949455
215.350510	1105.448730	1150.551025	1121.558472	35.718231
215.731949	1101.448364	1150.766113	1119.321411	36.240597
216.113358	1102.717285	1150.809082	1120.031250	36.001907
216.494736	1103.039917	1149.540161	1120.568970	37.696690
216.876083	1102.007568	1149.970337	1121.278687	40.179329
217.257401	1099.598633	1150.228394	1122.784302	45.794544
217.638702	1100.200928	1152.594238	1125.601807	48.481148
218.019943	1099.168457	1151.519043	1124.806030	48.972847
218.401169	1097.168335	1151.454590	1123.988647	49.405346
218.782349	1096.888550	1155.368896	1124.031616	46.413998
219.163498	1098.523193	1157.369263	1126.074829	46.819839
219.544632	1101.856934	1159.218872	1126.376099	42.744659
219.925705	1105.599365	1161.563232	1127.687988	39.469437
220.306778	1105.814453	1164.509888	1129.021606	39.538261
220.687805	1107.900757	1166.639282	1129.924927	37.495274
221.068802	1108.803955	1169.843872	1130.312256	35.236450
221.449738	1110.094604	1175.522095	1130.849854	31.722521
221.830673	1108.309326	1179.156860	1130.892822	31.876192
222.211563	1108.954590	1185.587891	1132.527344	30.760458
222.592438	1108.954590	1191.846680	1134.204956	30.461733
222.973267	1107.922119	1195.911621	1135.194458	30.994991
223.354065	1108.631958	1201.761841	1136.721436	30.161615
223.734848	1106.352051	1206.730225	1139.711182	33.233452
224.115555	1108.330933	1213.935425	1143.582642	33.380878
224.496262	1107.900757	1221.119019	1145.475342	33.187744
224.876923	1108.718018	1231.227905	1147.497070	31.653814
225.257568	1106.029419	1241.035522	1147.497070	30.715389
225.638168	1108.717896	1250.284058	1153.304199	31.495029
226.018723	1111.836670	1262.651245	1156.637939	29.706194
226.399277	1112.675537	1279.104980	1165.456299	31.713596
226.779785	1114.353149	1296.892090	1172.102295	31.636618
227.160263	1116.073975	1316.701050	1181.243286	32.482811
227.540695	1116.353394	1346.403564	1193.502808	33.535908
227.921112	1115.987915	1386.473145	1206.644043	33.516109
228.301483	1114.374756	1440.436646	1227.313354	34.637165
228.681824	1115.105957	1509.004272	1252.219604	34.809402
229.062134	1113.922974	1591.487793	1280.825317	34.948627
229.442413	1115.170410	1669.604736	1312.076538	35.514778
229.822647	1109.901123	1732.429810	1330.035767	35.361366
230.202881	1106.524292	1781.425049	1346.661499	35.581116
230.583054	1106.610229	1816.418457	1355.780884	35.103939
230.963196	1104.696167	1848.357910	1363.932495	34.859440
231.343292	1104.954224	1876.791748	1372.514160	34.665318
231.723404	1103.663696	1890.599731	1375.417725	34.533180
232.103439	1103.018433	1883.308716	1374.256348	34.761154
232.483459	1102.996948	1859.865112	1360.985840	34.086372
232.863434	1102.652710	1820.569824	1347.328247	34.081306
233.243393	1103.534668	1769.531128	1328.766724	33.818806
233.623306	1103.082886	1726.041870	1312.119629	33.555458
234.003174	1107.621094	1700.425781	1305.366089	33.357529
234.383041	1107.298462	1685.112183	1301.946289	33.686951
234.762848	1106.997314	1678.293823	1299.666504	33.724903
235.142639	1108.072754	1668.916382	1299.300781	34.096497
235.522385	1106.739258	1663.324341	1296.655396	34.121674
235.902115	1107.513550	1663.001831	1296.569336	34.034164
236.281799	1106.459717	1673.992310	1299.924561	34.088764
236.661438	1108.266357	1684.789429	1305.280151	34.172752
237.041077	1109.341797	1696.210205	1305.452148	33.416409
237.420654	1109.771973	1703.372314	1306.828491	33.196835
237.800217	1111.019409	1709.674194	1307.947021	32.895020
238.179733	1109.965576	1713.717651	1305.538086	32.392853
238.559219	1110.610840	1719.245239	1303.623901	31.712481
238.938690	1110.374146	1728.042114	1307.559814	31.924217
239.318100	1108.352417	1744.603394	1311.280762	31.894386
239.697510	1107.728638	1762.949707	1316.270508	31.827711
240.076859	1109.040771	1791.447998	1322.722900	31.312994
240.456177	1111.019409	1828.248169	1332.208008	30.839338
240.835464	1109.083740	1878.577026	1347.027100	30.922085
241.214722	1105.642456	1948.692993	1369.309448	31.275349
241.593948	1105.879028	2045.264160	1399.356323	31.241425
241.973129	1104.975586	2163.407959	1433.231445	31.013399
242.352295	1103.964722	2299.984131	1472.892212	30.846279
242.731415	1105.577759	2437.377197	1514.252075	30.685875
243.110519	1106.545654	2551.197754	1545.567871	30.389477
243.489578	1107.685547	2640.972412	1570.861328	30.208031
243.868607	1108.954590	2704.593262	1589.465698	30.114031
244.247604	1107.040405	2749.286865	1603.919189	30.256042
244.626541	1106.137085	2783.979492	1610.672729	30.070503
245.005493	1107.363037	2812.025879	1617.447754	29.922909
245.384369	1111.535645	2835.254639	1622.674194	29.653240
245.763229	1108.976196	2866.355225	1626.115356	29.426729
246.142059	1109.901001	2917.522705	1641.106567	29.386988
246.520859	1110.481689	3011.448242	1667.367920	29.294899
246.899612	1107.707153	3150.024170	1703.178833	29.156672
247.278336	1106.309204	3317.572510	1749.937012	29.106794
247.657043	1106.330688	3471.398193	1791.383179	28.965454
248.035690	1106.137085	3596.596680	1828.119019	28.989908
248.414322	1105.534790	3703.921143	1854.380371	28.819641
248.792908	1104.825073	3784.081787	1878.017578	28.858469
249.171478	1105.061646	3831.851318	1890.556641	28.806587
249.550003	1102.158081	3843.164307	1893.804565	28.881599
249.928482	1102.158203	3801.654053	1887.717651	29.100227
250.306961	1100.996704	3715.320313	1861.262817	29.080795
250.685364	1100.996582	3567.387695	1817.343384	29.044331
251.063782	1102.566650	3382.203857	1766.713379	29.133879
251.442123	1102.824829	3203.773193	1716.750366	29.221355
251.820450	1105.212036	3077.284424	1681.175903	29.206020
252.198761	1103.857300	3009.146973	1655.280396	28.941694
252.576996	1104.566895	2958.043945	1642.074219	28.999945
252.955246	1105.276733	2910.575684	1630.933105	29.117414
253.333420	1103.340942	2869.366455	1621.555786	29.343565
253.711578	1103.383911	2838.244385	1611.317871	29.278088
254.089706	1104.072266	2820.155762	1606.693726	29.288870
254.467804	1106.352173	2801.766357	1603.123413	29.300879
254.845871	1106.502686	2784.409180	1600.606934	29.447662
255.223877	1107.621094	2757.760742	1591.422974	29.318844
255.601898	1107.406006	2719.110840	1578.754639	29.245344
255.979828	1104.029175	2669.427490	1565.075684	29.452345
256.357727	1103.233521	2625.421875	1555.483154	29.710491
256.735657	1104.803589	2602.343994	1548.923096	29.656595
257.113525	1105.685425	2616.797607	1553.719482	29.649292
257.491333	1110.094482	2666.932617	1565.871460	29.275810
257.869110	1112.911987	2739.887695	1587.594482	29.175758
258.246887	1113.793945	2846.051514	1616.953003	29.046434
258.624573	1111.686035	2998.500244	1658.743286	28.993700
259.002289	1110.137573	3210.698975	1716.427734	28.863243
259.379944	1108.137207	3491.164063	1795.899902	28.860888
259.757538	1107.986572	3829.807861	1889.588989	28.716154
260.135162	1112.094727	4167.957031	1983.987915	28.531822
260.512665	1114.224121	4430.354980	2058.491455	28.474972
260.890228	1113.729370	4604.785156	2105.744629	28.415911
261.267700	1112.654053	4711.680176	2130.199463	28.272799
261.645142	1108.266357	4771.945801	2146.136963	28.328642
262.022552	1104.997192	4809.756836	2154.030518	28.315826
262.399994	1102.394653	4815.177246	2152.374268	28.280125
262.777313	1103.792725	4772.375977	2137.146729	28.167658
263.154602	1104.395020	4660.813965	2103.013428	28.079325
263.531921	1107.857666	4471.070313	2050.017578	28.013689
263.909149	1108.287964	4217.984863	1976.266479	27.911999
264.286377	1104.523926	3950.252930	1896.019897	27.813469
264.663574	1103.104370	3746.120850	1838.292480	27.816250
265.040710	1102.330200	3628.600098	1804.202026	27.782930
265.417816	1101.469849	3578.636963	1788.415161	27.731087
265.794891	1102.975464	3585.153809	1786.587036	27.540792
266.171936	1106.696289	3623.459961	1797.319458	27.440922
266.548950	1106.610229	3677.552490	1805.814941	27.196436
266.925934	1106.954468	3735.409180	1822.591431	27.226530
267.302887	1108.567505	3797.868164	1839.905396	27.194351
267.679810	1105.620972	3870.414795	1854.487793	27.085810
268.056671	1106.244629	3946.532227	1873.630005	27.017876
268.433502	1108.524536	4030.349121	1893.847656	26.877831
268.810333	1109.449341	4110.165527	1911.182861	26.718071
269.187073	1108.503052	4182.066895	1927.830200	26.657234
269.563843	1111.578613	4243.815918	1942.434082	26.525942
269.940521	1108.395386	4289.671387	1953.295654	26.558535
270.317200	1105.298218	4349.291016	1965.189575	26.507193
270.693848	1106.180054	4451.948730	1994.354614	26.546204
271.070435	1104.158203	4608.871582	2027.154297	26.335852
271.447021	1101.254761	4783.947266	2067.073486	26.225887
271.823547	1102.717285	4933.234863	2102.303467	26.095329
272.200043	1102.717285	5055.529785	2133.253662	26.070965
272.576538	1101.211792	5159.607422	2160.181641	26.093313
272.952972	1101.297729	5254.608398	2183.410156	26.054214
273.329346	1101.297852	5336.961914	2202.143555	25.989920
273.705688	1099.856689	5394.947754	2217.027344	26.010408
274.082062	1103.878662	5434.350586	2225.071289	25.890774
274.458344	1104.545410	5430.414551	2222.920898	25.853197
274.834595	1104.975586	5373.891113	2204.703125	25.761286
275.210846	1107.062012	5279.556641	2181.754150	25.756586
275.587006	1109.406372	5188.491699	2157.278076	25.688889
275.963165	1107.535156	5131.560547	2143.555908	25.745880
276.339294	1108.223389	5102.933105	2132.264160	25.634924
276.715393	1108.804199	5097.857422	2130.328369	25.608187
277.091461	1108.352417	5095.986328	2126.972900	25.544485
277.467438	1107.363159	5100.395508	2127.940918	25.558966
277.843445	1106.395142	5116.333008	2129.984375	25.526310
278.219452	1103.599121	5136.120605	2137.683838	25.643625
278.595337	1103.642090	5168.790527	2141.426758	25.528826
278.971191	1105.470215	5202.988770	2146.803467	25.413754
279.347046	1102.846191	5224.970215	2149.578369	25.393030
279.722870	1103.512939	5245.789551	2151.857910	25.308426
280.098663	1105.126099	5272.502930	2154.524902	25.181278
280.474396	1104.244263	5315.346680	2166.268311	25.219620
280.850098	1105.577759	5378.472656	2180.184082	25.149374
281.225800	1106.889771	5478.054688	2203.928955	25.097181
281.601440	1108.416870	5604.263672	2231.093750	24.971422
281.977051	1109.771973	5762.928711	2266.431396	24.857521
282.352600	1110.804321	5917.786621	2295.832764	24.652231
282.728149	1108.739502	6036.618652	2324.847412	24.678122
283.103668	1107.104858	6125.898438	2346.032715	24.685770
283.479156	1107.836182	6205.370605	2367.218018	24.705706
283.854553	1106.352173	6286.821777	2390.124023	24.780993
284.229950	1106.266113	6379.285645	2411.029785	24.744146
284.605347	1105.190796	6472.673340	2430.258057	24.686941
284.980652	1102.545288	6548.875488	2447.722656	24.698786
285.355988	1103.169067	6627.101074	2464.456055	24.643442
285.731201	1103.556152	6698.250000	2481.619385	24.631611
286.106445	1102.781982	6752.944824	2496.933105	24.674528
286.481659	1102.846313	6808.629395	2510.719727	24.674500
286.856781	1104.201294	6870.120117	2523.968750	24.623438
287.231934	1105.771362	6928.987793	2538.787598	24.608673
287.607025	1107.169556	6960.324707	2544.594727	24.558125
287.982056	1108.761108	6965.078125	2541.088867	24.457825
288.357086	1108.416870	6943.226074	2534.765625	24.445509
288.732086	1109.750244	6915.803223	2526.678711	24.404333
289.107025	1111.320313	6892.854492	2518.032471	24.331123
289.481934	1108.933105	6867.646484	2509.084961	24.313623
289.856842	1108.954590	6862.871582	2504.568359	24.255020
290.231659	1109.341675	6882.121582	2502.180908	24.127705
290.606506	1108.244751	6897.220215	2506.955811	24.161633
290.981262	1107.900757	6926.707520	2513.364990	24.153822
291.355988	1106.266113	6951.720703	2518.398193	24.157780
291.730713	1105.577759	6984.929688	2529.818848	24.224457
292.105377	1101.792358	7000.609375	2539.110352	24.366207
292.480011	1100.673950	7013.320801	2546.982178	24.461266
292.854614	1098.802734	7021.666016	2557.650146	24.630779
293.229187	1098.308105	7052.701660	2574.103760	24.784986
293.603729	1097.834839	7084.898926	2596.127930	25.025507
293.978241	1098.114502	7114.063965	2620.905029	25.312555
294.352692	1096.200317	7137.701660	2648.801025	25.698921
294.727081	1095.963745	7172.070801	2679.019775	26.053787
295.101501	1097.555298	7206.290527	2710.335693	26.401217
295.475830	1096.996216	7287.849609	2753.394775	26.755577
295.850189	1097.340332	7413.284180	2808.111572	27.086550
296.224457	1100.889038	7610.577637	2881.841064	27.358482
296.598694	1102.416138	7846.520508	2966.862305	27.645571
296.972931	1104.997192	8089.367676	3052.485840	27.883524
297.347107	1104.029297	8281.477539	3127.355469	28.190048
297.721283	1105.556274	8400.868164	3184.200928	28.492880
298.095367	1105.255249	8443.261719	3213.839111	28.735107
298.469452	1107.943848	8421.086914	3223.474365	28.927788
298.843475	1109.987061	8373.726563	3221.043945	29.062950
299.217529	1109.793457	8323.332031	3216.764160	29.208559
299.591492	1111.858276	8247.838867	3205.407959	29.337942
299.965424	1111.492554	8143.653320	3182.888916	29.456047
300.339325	1109.857910	7988.924805	3143.400635	29.561316
300.713196	1107.513550	7790.879395	3091.501465	29.685461
301.087036	1107.319946	7579.626953	3034.956787	29.782839
301.460815	1109.965454	7387.646973	2983.488281	29.844183
301.834564	1109.728882	7243.758301	2936.299316	29.777660
302.208282	1108.029785	7116.881348	2900.359375	29.828156
302.582001	1107.040527	7010.502930	2870.226563	29.866982
302.955658	1106.072632	6917.976074	2844.072754	29.904148
303.329254	1104.287354	6834.223145	2820.758057	29.956196
303.702820	1103.082886	6764.752930	2799.744629	29.967514
304.076416	1102.953857	6701.927734	2780.172363	29.955820
304.449921	1105.104614	6637.296387	2762.643555	29.961704
304.823395	1106.051025	6586.451172	2744.985107	29.905371
305.196838	1106.567261	6530.292480	2730.768555	29.946232
305.570251	1106.481201	6469.038574	2710.701172	29.915203
305.943604	1106.223145	6403.201660	2690.117920	29.901854
306.316986	1110.094604	6367.820801	2678.783447	29.835880
306.690277	1108.868652	6345.474609	2668.545654	29.784121
307.063507	1108.373901	6343.840332	2667.577881	29.781569
307.436768	1109.449341	6365.262207	2673.772217	29.763670
307.809937	1110.653809	6409.956055	2681.665771	29.645638
308.183136	1111.298950	6479.620117	2695.624512	29.512495
308.556244	1108.223511	6569.566895	2718.465820	29.484364
308.929321	1107.664185	6653.534180	2742.748535	29.482918
309.302399	1105.943481	6743.825195	2765.719238	29.439705
309.675446	1106.309082	6841.664551	2793.356934	29.414879
310.048401	1106.911377	6937.526367	2823.296143	29.437456
310.421356	1103.190552	7031.215820	2849.708008	29.462044
310.794281	1103.706543	7135.378418	2880.894775	29.464272
311.167145	1103.620728	7231.713867	2905.370850	29.401480
311.539978	1103.448608	7308.023926	2923.416016	29.332668
311.912781	1100.932129	7343.147949	2936.944824	29.412836
312.285553	1101.641846	7331.144043	2933.503174	29.406225
312.658295	1102.480591	7282.859375	2918.963867	29.391130
313.031006	1104.846558	7225.992188	2904.467285	29.400064
313.403656	1103.190308	7173.060547	2887.303711	29.392942
313.776276	1101.985962	7139.852051	2874.313232	29.353537
314.148865	1102.394653	7134.390137	2868.161865	29.273350
314.521454	1101.168701	7136.002930	2866.849854	29.258156
314.893982	1099.577148	7119.096680	2860.784668	29.258274
315.266449	1100.523438	7070.789551	2847.965820	29.269087
315.638885	1099.770752	7000.157715	2827.124756	29.275269
316.011322	1101.728027	6926.600098	2804.691650	29.236069
316.383667	1100.394409	6864.806641	2789.291992	29.298697
316.756042	1104.696045	6818.005859	2772.666260	29.194466
317.128326	1104.265869	6778.517578	2758.578613	29.154728
317.500610	1107.233887	6732.468750	2743.716553	29.091810
317.872833	1106.760864	6660.287598	2720.487793	29.057695
318.245087	1106.717773	6574.492188	2696.076172	29.067739
