Jaz Data File
++++++++++++++++++++++++++++++++++++
Date: Mon Apr 22 19:26:44 2019
User: jaz
Dark Spectrum Present: Yes
Reference Spectrum Present: Yes
Processed Spectrum Present: Yes
Spectrometers: JAZA2928
Integration Time (usec): 40000 (JAZA2928)
Spectra Averaged: 10 (JAZA2928)
Boxcar Smoothing: 5 (JAZA2928)
Correct for Electrical Dark: No (JAZA2928)
Strobe/Lamp Enabled: Yes (JAZA2928)
Correct for Detector Non-linearity: No (JAZA2928)
Correct for Stray Light: No (JAZA2928)
Number of Pixels in Processed Spectrum: 2048
>>>>>Begin Processed Spectral Data<<<<<
W	D	R	S	P
190.104553	0.000000	0.000000	0.000000	0.000000
190.488098	0.000000	0.000000	0.000000	0.000000
190.871613	1077.423828	1084.994751	1054.001587	-309.371033
191.255096	1080.499390	1079.079956	1044.538086	2533.496826
191.638535	0.000000	0.000000	0.000000	0.000000
192.021942	903.294739	908.865295	892.110535	-200.773544
192.405334	1004.317993	1010.039124	994.252197	-175.940689
192.788696	1107.599609	1112.288330	1096.587402	-234.865921
193.172012	1111.471069	1116.052246	1103.534546	-173.242020
193.555313	1116.138306	1118.654663	1112.976563	-125.647621
193.938568	1122.375488	1122.956299	1117.945068	-762.799500
194.321793	1125.386597	1126.505127	1119.299927	-544.166748
194.704987	1126.655640	1129.473267	1122.117554	-161.060562
195.088150	1127.429810	1129.387207	1123.300537	-210.957275
195.471298	1126.505249	1131.710083	1125.021118	-28.514471
195.854401	1127.494629	1132.054199	1124.182373	-72.644035
196.237457	1129.064575	1128.957031	1122.805786	5819.750488
196.620499	1129.043091	1130.441040	1119.816162	-660.033203
197.003494	1127.171875	1130.140137	1118.654785	-286.938629
197.386475	1126.999878	1131.129395	1117.622314	-227.086227
197.769424	1126.419067	1132.441406	1115.923218	-174.281952
198.152344	1123.365112	1134.527832	1113.148804	-91.521683
198.535217	1120.934570	1135.947266	1115.729614	-34.670364
198.918076	1121.149658	1138.098022	1115.363892	-34.137611
199.300903	1121.838013	1139.668091	1116.869507	-27.865868
199.683670	1123.838257	1144.421387	1116.632935	-35.005959
200.066422	1123.730591	1145.023560	1118.998901	-22.221840
200.449142	1121.967041	1147.884277	1118.246094	-14.357038
200.831848	1122.719849	1149.174683	1122.612183	-0.406981
201.214508	1123.537109	1149.002686	1123.300537	-0.928988
201.597137	1122.891846	1150.120972	1124.074707	4.344103
201.979736	1122.612183	1152.874146	1122.848877	0.782151
202.362274	1122.633789	1149.088623	1124.462036	6.910824
202.744827	1121.257202	1147.625977	1123.020996	6.688949
203.127319	1119.171021	1146.055908	1122.504761	12.400053
203.509796	1116.525513	1142.786621	1124.074707	28.746670
203.892227	1113.406860	1136.872070	1124.074829	45.462917
204.274643	1110.567749	1137.151489	1121.945557	42.799873
204.657013	1110.804321	1134.850342	1119.794800	37.388634
205.039352	1108.223389	1132.441406	1116.697510	34.990978
205.421661	1104.932617	1135.796753	1117.321289	40.139378
205.803940	1103.964722	1135.516968	1114.783325	34.287903
206.186188	1103.771118	1133.344727	1115.643555	40.145378
206.568405	1101.921387	1134.248169	1114.439087	38.722382
206.950592	1103.297974	1136.119263	1113.664917	31.586033
207.332748	1101.340698	1133.882446	1112.395874	33.972286
207.714859	1099.964233	1136.269775	1110.116089	27.962275
208.096939	1099.598511	1137.732422	1109.255737	25.324511
208.478989	1098.695190	1137.280762	1110.954956	31.772928
208.861008	1098.931763	1138.291626	1112.912109	35.519299
209.243011	1099.318848	1140.765137	1113.062622	33.160446
209.624969	1098.652222	1139.410034	1110.460205	28.971092
210.006897	1098.480103	1140.377808	1110.868896	29.569147
210.388794	1097.469238	1141.345703	1108.567505	25.294350
210.770645	1097.426270	1141.603882	1108.588989	25.267820
211.152481	1097.146606	1140.549927	1110.503296	30.773428
211.534286	1097.404785	1143.152344	1110.976440	29.666403
211.916061	1097.490723	1141.238159	1110.223511	29.105221
212.297791	1097.985474	1142.119995	1108.782471	24.463837
212.679489	1097.125122	1143.195435	1105.599243	18.393887
213.061157	1093.662354	1142.313599	1104.911011	23.121006
213.442795	1093.812988	1142.786743	1104.824951	22.485437
213.824402	1094.071167	1142.829712	1106.308960	25.098766
214.205963	1094.823730	1141.496216	1105.599365	23.087767
214.587524	1093.705444	1141.195190	1106.975830	27.943686
214.969025	1094.952881	1142.937378	1109.535278	30.389811
215.350510	1093.554932	1145.948486	1107.190918	26.026075
215.731949	1092.823730	1144.572021	1109.040649	31.338076
216.113358	1092.221558	1147.841309	1110.395630	32.675571
216.494736	1093.361328	1147.239014	1113.471191	37.325031
216.876083	1093.124878	1145.324707	1117.600830	46.888950
217.257401	1094.823975	1146.765747	1119.106567	46.749641
217.638702	1094.910034	1149.389771	1119.429077	45.005802
218.019943	1095.791748	1151.841553	1118.482666	40.483490
218.401169	1094.006592	1152.142700	1119.256958	43.433189
218.782349	1094.372070	1154.788208	1118.783813	40.405998
219.163498	1094.436646	1158.272583	1118.676270	37.971752
219.544632	1098.286621	1158.659668	1120.074341	36.088490
219.925705	1102.416138	1162.423584	1119.278442	28.100353
220.306778	1103.104370	1163.929199	1121.149536	29.667435
220.687805	1101.082520	1168.661011	1121.558350	30.299330
221.068802	1101.770996	1176.640503	1119.235474	23.326555
221.449738	1101.985840	1182.598145	1122.052979	24.893394
221.830673	1099.340454	1186.620117	1122.956421	27.057812
222.211563	1098.394043	1191.932617	1125.881470	29.386194
222.592438	1098.759766	1200.084106	1129.150757	29.993771
222.973267	1099.060913	1206.730225	1132.699463	31.242468
223.354065	1097.727417	1211.655518	1135.409424	33.075253
223.734848	1093.791382	1217.828369	1137.474365	35.217709
224.115555	1090.436157	1228.302734	1139.281128	35.429161
224.496262	1092.694458	1238.497559	1139.904785	32.379509
224.876923	1092.178223	1246.498535	1142.614746	32.683010
225.257568	1091.016846	1255.639526	1149.432739	35.484718
225.638168	1088.113281	1265.554688	1150.400635	35.103054
226.018723	1090.479248	1277.147583	1156.121704	35.165287
226.399277	1092.328735	1291.923462	1161.799927	34.806126
226.779785	1094.759277	1309.861206	1168.295288	34.186588
227.160263	1093.726929	1333.046875	1175.349976	34.106243
227.540695	1093.103149	1363.351685	1183.544678	33.466057
227.921112	1091.984741	1408.217529	1199.266846	33.925041
228.301483	1092.501099	1466.525879	1220.817993	34.307056
228.681824	1092.006348	1543.460083	1244.003784	33.668442
229.062134	1095.339966	1631.212891	1273.190186	33.188881
229.442413	1095.404419	1713.438232	1297.451172	32.691860
229.822647	1099.469604	1782.349976	1319.367676	32.201550
230.202881	1100.846069	1832.011841	1334.746094	31.990013
230.583054	1100.674072	1871.651245	1347.736816	32.045403
230.963196	1098.372681	1904.106934	1359.673828	32.430191
231.343292	1097.576782	1930.819946	1367.352173	32.376549
231.723404	1097.146606	1946.348755	1374.794067	32.695095
232.103439	1098.372681	1940.670654	1370.879639	32.352798
232.483459	1098.630737	1913.054321	1359.910645	32.081573
232.863434	1096.802612	1867.650757	1348.554321	32.659054
233.243393	1091.662109	1814.934814	1328.702393	32.773293
233.623306	1092.909668	1767.294434	1313.732788	32.744381
234.003174	1092.242920	1737.763672	1306.119019	33.132336
234.383041	1089.382324	1724.880371	1302.053955	33.465347
234.762848	1090.930786	1717.675293	1297.881348	33.019924
235.142639	1091.855591	1711.932495	1292.999023	32.438465
235.522385	1094.135498	1708.491089	1292.912964	32.355442
235.902115	1095.834839	1710.212036	1290.374878	31.664593
236.281799	1095.641113	1716.384766	1292.805420	31.762598
236.661438	1096.178833	1729.009888	1297.451050	31.805048
237.041077	1095.576660	1740.946899	1298.569458	31.453697
237.420654	1098.458618	1747.033569	1303.709961	31.646511
237.800217	1097.963989	1755.550659	1305.000488	31.484291
238.179733	1098.351074	1761.530029	1305.000488	31.160431
238.559219	1100.372925	1769.509644	1304.957520	30.574409
238.938690	1098.265137	1782.220703	1307.882446	30.647797
239.318100	1096.630493	1800.158325	1312.119629	30.629795
239.697510	1097.017578	1821.687988	1315.367310	30.130901
240.076859	1097.168091	1847.260986	1322.185425	29.998596
240.456177	1098.178955	1891.976440	1331.132690	29.346746
240.835464	1096.651855	1948.263184	1346.532471	29.342096
241.214722	1097.275757	2024.745728	1367.997559	29.189280
241.593948	1097.963989	2132.092285	1395.097534	28.732754
241.973129	1097.856567	2259.333740	1431.295654	28.708191
242.352295	1097.297363	2406.750000	1472.870605	28.681698
242.731415	1097.856323	2553.327148	1513.821899	28.579451
243.110519	1095.877686	2674.417480	1547.008911	28.579021
243.489578	1095.877686	2769.440186	1574.410156	28.593641
243.868607	1096.049805	2835.943115	1593.702759	28.602499
244.247604	1097.684448	2886.035156	1608.994995	28.591179
244.626541	1098.910278	2917.953125	1622.609741	28.789837
245.005493	1099.792114	2945.719727	1629.384644	28.689777
245.384369	1100.114868	2970.948975	1637.579224	28.728596
245.763229	1100.609497	2998.909180	1645.171509	28.686831
246.142059	1102.760254	3052.937500	1658.420410	28.492804
246.520859	1102.351685	3154.261475	1683.240601	28.309673
246.899612	1100.889038	3308.366943	1723.052002	28.184334
247.278336	1101.942993	3494.518799	1771.982788	28.004957
247.657043	1102.394653	3664.540039	1815.665894	27.838827
248.035690	1101.405273	3803.309570	1855.993286	27.928007
248.414322	1100.867676	3921.002197	1885.093750	27.808109
248.792908	1099.297607	4008.367432	1907.806152	27.792683
249.171478	1099.835205	4061.642822	1920.452759	27.706646
249.550003	1101.104126	4068.827148	1921.893799	27.657219
249.928482	1100.588013	4035.661621	1913.269409	27.688620
250.306961	1099.620117	3942.724854	1887.395020	27.708261
250.685364	1099.362061	3780.747803	1845.411377	27.823275
251.063782	1100.652466	3577.324951	1790.996094	27.873837
251.442123	1101.168701	3379.536865	1736.860474	27.901188
251.820450	1102.416138	3241.261963	1700.382690	27.957441
252.198761	1102.201050	3168.177490	1677.691772	27.855627
252.576996	1101.276245	3111.740479	1661.367188	27.858788
252.955246	1101.921509	3063.153809	1645.752075	27.729023
253.333420	1101.039673	3017.792969	1634.395996	27.826029
253.711578	1100.437500	2990.306152	1624.653076	27.738201
254.089706	1100.308472	2965.872803	1615.425903	27.611883
254.467804	1098.716675	2948.537354	1609.210083	27.596912
254.845871	1099.856567	2933.202148	1603.144897	27.451908
255.223877	1098.996338	2907.005371	1596.713989	27.528494
255.601898	1100.480347	2870.334229	1587.314819	27.507044
255.979828	1098.265137	2818.026367	1572.990601	27.604149
256.357727	1098.630737	2763.826172	1556.601440	27.502520
256.735657	1098.480225	2741.457764	1551.805054	27.591663
257.113525	1098.071411	2758.492432	1555.418457	27.544041
257.491333	1098.480347	2812.197754	1569.312622	27.474323
257.869110	1097.835083	2891.799072	1591.874634	27.538990
258.246887	1097.684448	3007.146729	1622.953613	27.508747
258.624573	1097.232788	3174.092285	1669.453979	27.552237
259.002289	1097.275757	3402.142090	1728.128052	27.370451
259.379944	1098.566284	3704.265625	1808.912231	27.261242
259.757538	1098.415649	4068.052490	1905.784668	27.187468
260.135162	1099.318970	4428.032715	1996.505493	26.952948
260.512665	1100.760010	4715.939453	2070.793945	26.832249
260.890228	1099.792114	4904.715332	2117.918213	26.758123
261.267700	1101.147095	5016.622070	2148.008057	26.736500
261.645142	1101.942871	5083.039063	2163.278809	26.659389
262.022552	1103.211914	5120.677734	2172.828369	26.624159
262.399994	1102.717285	5125.904297	2172.140381	26.581491
262.777313	1103.857178	5080.715820	2154.782959	26.426027
263.154602	1104.911011	4961.216309	2123.725342	26.419443
263.531921	1102.824707	4760.159180	2064.126709	26.284224
263.909149	1102.459106	4480.791504	1988.891724	26.238762
264.286377	1101.491333	4192.583984	1914.280151	26.294546
264.663574	1099.878174	3972.277100	1857.004395	26.358673
265.040710	1101.921509	3845.767090	1824.333618	26.328453
265.417816	1099.168457	3795.782227	1808.417847	26.301481
265.794891	1099.340576	3797.803955	1806.030151	26.188593
266.171936	1099.104004	3841.508057	1814.353638	26.081118
266.548950	1099.921265	3899.708740	1827.903809	26.001348
266.925934	1101.383789	3954.425049	1842.056152	25.960800
267.302887	1100.329834	4020.368896	1857.369873	25.925682
267.679810	1102.308594	4091.776367	1876.705811	25.904184
268.056671	1102.652710	4176.216797	1892.772217	25.706949
268.433502	1101.749512	4266.658203	1912.645752	25.621473
268.810333	1101.684814	4350.517578	1933.830933	25.613695
269.187073	1099.039429	4426.677734	1949.080200	25.544868
269.563843	1101.362305	4488.276855	1964.522949	25.485161
269.940521	1100.588013	4541.895996	1978.374268	25.507343
270.317200	1099.899780	4605.710449	1991.644531	25.436193
270.693848	1099.146973	4713.035645	2017.475464	25.411089
271.070435	1097.705933	4884.304199	2059.739014	25.406263
271.447021	1095.856323	5082.371582	2103.228271	25.269487
271.823547	1093.920532	5251.705078	2138.415527	25.121431
272.200043	1092.931152	5382.043457	2168.418945	25.074835
272.576538	1096.501465	5496.100098	2195.863525	24.987782
272.952972	1096.630493	5606.415527	2216.016357	24.821268
273.329346	1099.641602	5698.835449	2240.342041	24.802183
273.705688	1097.490723	5766.155762	2253.763184	24.766661
274.082062	1094.221558	5809.837891	2262.301758	24.770468
274.458344	1094.049438	5806.568848	2259.355225	24.727871
274.834595	1093.060059	5748.755371	2243.396240	24.708151
275.210846	1093.748413	5652.141113	2215.349609	24.605190
275.587006	1095.361572	5538.041016	2188.529297	24.606045
275.963165	1096.135864	5473.688965	2176.054443	24.669456
276.339294	1095.920898	5444.265625	2173.817627	24.788668
276.715393	1094.329224	5440.265137	2171.989258	24.796961
277.091461	1093.942017	5437.361816	2171.774414	24.815294
277.467438	1092.931152	5444.867676	2169.429932	24.736086
277.843445	1094.372192	5460.289551	2174.441406	24.738653
278.219452	1097.361816	5481.604004	2177.968994	24.647524
278.595337	1097.275757	5513.521484	2181.797119	24.557541
278.971191	1097.318726	5547.805664	2185.496826	24.450766
279.347046	1096.716553	5572.969727	2191.454346	24.456568
279.722870	1095.727051	5607.189453	2196.723877	24.404432
280.098663	1096.953125	5631.234863	2202.208496	24.375534
280.474396	1098.222168	5683.004883	2209.865479	24.246368
280.850098	1099.727539	5749.679688	2224.383301	24.186394
281.225800	1099.770630	5852.595703	2247.762451	24.153883
281.601440	1099.125488	5983.816895	2273.679688	24.045618
281.977051	1098.996338	6153.665527	2309.275391	23.943785
282.352600	1100.265503	6314.695801	2344.032227	23.852400
282.728149	1102.996948	6448.454590	2378.187256	23.855587
283.103668	1104.007935	6547.198242	2401.802979	23.842543
283.479156	1102.588379	6633.079590	2419.547119	23.812691
283.854553	1102.502319	6720.380859	2437.097656	23.756216
284.229950	1098.480347	6819.877930	2457.874756	23.759832
284.605347	1096.501587	6916.750000	2477.790771	23.732477
284.980652	1094.888428	7007.728516	2495.879150	23.694042
285.355988	1092.500977	7095.331055	2517.516113	23.739056
285.731201	1094.243042	7173.210938	2536.744385	23.729380
286.106445	1094.888428	7234.551758	2548.788818	23.680458
286.481659	1094.802368	7309.464355	2564.317627	23.645939
286.856781	1091.490112	7380.248047	2575.200928	23.593067
287.231934	1093.942017	7436.878418	2587.180908	23.541759
287.607025	1097.254272	7468.667480	2593.482666	23.483463
287.982056	1100.114868	7471.699707	2593.396729	23.436584
288.357086	1103.577637	7457.009766	2587.180908	23.351210
288.732086	1104.201294	7427.049805	2577.824707	23.306322
289.107025	1104.373413	7399.476563	2570.146484	23.284338
289.481934	1106.137085	7369.988770	2558.833252	23.191740
289.856842	1104.395020	7367.579590	2559.499756	23.232666
290.231659	1103.276611	7383.409668	2561.285156	23.216206
290.606506	1102.717407	7399.583984	2564.102539	23.208132
290.981262	1104.029419	7420.532715	2572.985596	23.255844
291.355988	1103.341064	7460.408203	2586.019531	23.323309
291.730713	1101.276245	7499.531250	2598.838379	23.405790
292.105377	1100.996582	7523.040527	2610.366699	23.502954
292.480011	1102.115112	7531.126953	2620.561279	23.618656
292.854614	1101.340698	7544.418945	2633.831787	23.785076
293.229187	1102.093628	7573.949707	2654.156738	23.981731
293.603729	1104.115356	7617.632324	2683.751709	24.251665
293.978241	1103.771240	7652.840332	2709.582764	24.519690
294.352692	1101.964478	7681.683105	2743.522461	24.948755
294.727081	1101.061035	7708.525391	2782.322998	25.444889
295.101501	1098.609253	7761.865234	2819.961914	25.833508
295.475830	1095.512085	7848.133301	2869.086182	26.264973
295.850189	1095.038940	7991.893555	2933.739502	26.659988
296.224457	1091.683716	8203.381836	3022.675537	27.152330
296.598694	1089.403809	8463.350586	3119.439941	27.529844
296.972931	1089.016602	8729.597656	3223.001465	27.929615
297.347107	1088.586426	8935.946289	3309.980225	28.307531
297.721283	1087.898071	9061.037109	3370.933838	28.634087
298.095367	1089.769409	9098.051758	3409.411865	28.965546
298.469452	1092.737427	9080.931641	3426.338379	29.213123
298.843475	1092.199707	9037.636719	3430.081055	29.424200
299.217529	1094.587158	8972.337891	3430.489746	29.651897
299.591492	1096.436890	8892.672852	3419.864258	29.801910
299.965424	1098.135864	8774.442383	3397.818848	29.958197
300.339325	1102.179565	8594.958008	3352.286133	30.030334
300.713196	1103.513062	8374.263672	3303.119385	30.252811
301.087036	1105.448730	8138.126465	3241.003906	30.366175
301.460815	1104.975586	7937.585938	3184.222412	30.431223
301.834564	1103.771118	7774.533203	3138.926514	30.508589
302.208282	1103.125854	7649.119141	3099.609619	30.499325
302.582001	1103.297974	7531.814453	3063.175049	30.487236
302.955658	1103.297974	7423.306641	3032.676758	30.528103
303.329254	1100.889038	7332.241699	3004.199951	30.544106
303.702820	1101.276245	7248.747070	2980.390625	30.567276
304.076416	1100.910645	7176.007813	2962.431396	30.641827
304.449921	1099.491089	7122.452637	2946.837891	30.671736
304.823395	1099.749146	7062.165527	2926.986084	30.645912
305.196838	1099.426636	7003.878418	2906.725830	30.609095
305.570251	1097.921021	6932.858887	2884.744629	30.622837
305.943604	1096.479980	6870.485840	2865.021729	30.629372
306.316986	1096.350952	6825.146973	2854.482666	30.689377
306.690277	1094.759399	6800.218750	2848.933838	30.745543
307.063507	1094.200073	6800.971680	2847.256104	30.718876
307.436768	1095.038940	6830.372070	2855.644287	30.697527
307.809937	1092.328979	6880.078125	2872.764648	30.762144
308.183136	1093.081665	6951.484375	2893.627441	30.734413
308.556244	1091.640747	7039.259277	2918.770264	30.720354
308.929321	1092.802002	7145.702637	2943.525879	30.575819
309.302399	1091.963379	7244.488770	2976.734619	30.634108
309.675446	1093.597778	7353.104492	3007.577148	30.577160
310.048401	1095.167969	7449.568359	3034.784912	30.523996
310.421356	1093.662354	7553.624512	3061.540771	30.462694
310.794281	1094.049438	7670.606445	3092.577148	30.388662
311.167145	1096.264771	7784.168945	3120.429688	30.266056
311.539978	1100.437378	7864.242676	3140.518066	30.161730
311.912781	1102.588135	7910.098145	3148.519287	30.054031
312.285553	1101.147095	7899.667480	3142.625732	30.028278
312.658295	1102.308472	7851.940430	3122.150146	29.925213
313.031006	1101.254639	7786.728027	3104.685791	29.966928
313.403656	1101.792358	7728.354980	3081.478760	29.875013
313.776276	1101.663208	7684.435547	3068.746094	29.882286
314.148865	1102.029053	7688.415527	3064.594727	29.797304
314.521454	1105.040161	7694.351563	3065.670166	29.754702
314.893982	1103.147583	7677.596680	3061.411621	29.785978
315.266449	1101.018311	7620.212891	3046.872070	29.848070
315.638885	1095.899292	7539.772949	3027.514893	29.976002
316.011322	1094.544189	7452.429199	3001.726807	29.997124
316.383667	1094.759277	7385.065430	2979.401367	29.961056
316.756042	1094.458130	7327.316895	2968.583008	30.068462
317.128326	1094.049561	7277.848145	2952.860596	30.059372
317.500610	1094.329102	7220.959473	2934.858398	30.041462
317.872833	1094.157104	7145.443848	2910.489746	30.015644
318.245087	1094.608643	7047.453613	2882.120605	30.027861
