Jaz Data File
++++++++++++++++++++++++++++++++++++
Date: Thu Dec 19 19:56:11 2019
User: jaz
Dark Spectrum Present: Yes
Reference Spectrum Present: Yes
Processed Spectrum Present: Yes
Spectrometers: JAZA2928
Integration Time (usec): 32200 (JAZA2928)
Spectra Averaged: 10 (JAZA2928)
Boxcar Smoothing: 5 (JAZA2928)
Correct for Electrical Dark: No (JAZA2928)
Strobe/Lamp Enabled: Yes (JAZA2928)
Correct for Detector Non-linearity: No (JAZA2928)
Correct for Stray Light: No (JAZA2928)
Number of Pixels in Processed Spectrum: 2048
>>>>>Begin Processed Spectral Data<<<<<
W	D	R	S	P
190.104553	0.000000	0.000000	0.000000	0.000000
190.488098	0.000000	0.000000	0.000000	0.000000
190.871613	1222.216064	1221.506226	1202.579102	2766.397217
191.255096	1238.540649	1233.335571	1222.925659	299.995300
191.638535	0.000000	0.000000	0.000000	0.000000
192.021942	1036.773560	1030.450195	1023.158997	215.305695
192.405334	1155.648560	1147.669067	1139.410034	203.503250
192.788696	1274.652466	1262.909058	1255.617920	162.087067
193.172012	1281.298462	1269.963745	1262.629517	164.705887
193.555313	1285.621704	1275.921387	1266.759155	194.452911
193.938568	1287.686401	1279.212036	1269.899292	209.893112
194.321793	1290.460938	1281.040405	1273.125488	184.017731
194.704987	1289.019897	1284.245117	1275.727905	278.379150
195.088150	1289.234985	1288.267090	1277.814331	1179.947021
195.471298	1289.493042	1288.654419	1277.986206	1372.110596
195.854401	1289.772705	1286.008911	1278.201294	307.440094
196.237457	1290.568481	1284.460205	1277.814209	208.803131
196.620499	1288.439331	1282.847168	1276.867798	206.924103
197.003494	1284.438721	1283.922485	1276.609741	1516.552368
197.386475	1282.524536	1283.363403	1275.405396	-848.661255
197.769424	1281.212402	1279.771484	1276.351685	337.334808
198.152344	1276.953857	1280.287720	1277.534668	17.421553
198.535217	1276.007568	1284.933472	1274.760254	-13.974097
198.918076	1276.867920	1284.051636	1273.469604	-47.305817
199.300903	1277.900269	1285.406616	1272.759888	-68.480453
199.683670	1277.362671	1288.159668	1273.383667	-36.852875
200.066422	1276.029175	1290.396362	1275.620605	-2.843767
200.449142	1272.996338	1293.257080	1278.631714	27.814262
200.831848	1272.308105	1295.923950	1280.782471	35.884235
201.214508	1273.082520	1297.494019	1279.491943	26.255756
201.597137	1270.372437	1297.322144	1280.954468	39.265850
201.979736	1270.437012	1300.462280	1280.115601	32.234814
202.362274	1269.383057	1301.989380	1277.470093	24.802048
202.744827	1266.500977	1300.075073	1279.040161	37.347794
203.127319	1266.672974	1301.387085	1280.803833	40.706383
203.509796	1265.511597	1299.752441	1281.363159	46.294308
203.892227	1264.479126	1296.504761	1278.889648	44.996838
204.274643	1262.263794	1295.128174	1275.125854	39.136780
204.657013	1263.597534	1293.515137	1272.695313	30.409451
205.039352	1263.640503	1292.095581	1271.082153	26.152275
205.421661	1264.092163	1289.751221	1272.308228	32.020134
205.803940	1264.909424	1291.364380	1270.458496	20.975550
206.186188	1265.898804	1292.547241	1271.232788	20.016125
206.568405	1264.973755	1292.353638	1271.619873	24.273727
206.950592	1264.758911	1290.504028	1268.931519	16.207375
207.332748	1262.328491	1288.654297	1267.963623	21.405354
207.714859	1261.661621	1287.793945	1268.071167	24.527271
208.096939	1260.478760	1288.116577	1270.350952	35.719872
208.478989	1260.220581	1289.772583	1272.630859	41.994713
208.861008	1258.392456	1290.697388	1272.458740	43.542221
209.243011	1256.542847	1291.041504	1272.910278	47.443676
209.624969	1254.563965	1292.740723	1273.942749	50.760685
210.006897	1256.112671	1290.503906	1274.953613	54.784138
210.388794	1252.155273	1290.288940	1272.974976	54.596642
210.770645	1254.585693	1292.611816	1275.405396	54.751053
211.152481	1253.273560	1292.353638	1276.222656	58.723263
211.534286	1252.133789	1291.041626	1278.029419	66.556335
211.916061	1251.208862	1291.536255	1278.416626	67.467201
212.297791	1251.488403	1293.773193	1277.104492	60.579914
212.679489	1250.240967	1292.418213	1274.609497	57.776485
213.061157	1249.832275	1292.224731	1272.996582	54.642521
213.442795	1248.907471	1290.891113	1270.028198	50.307037
213.824402	1249.208618	1290.891113	1265.984863	40.247700
214.205963	1249.251587	1292.998901	1266.092407	38.495667
214.587524	1250.778687	1292.697754	1266.694580	37.968147
214.969025	1250.004395	1290.955688	1263.296387	32.458054
215.350510	1251.638916	1293.730347	1263.704956	28.666262
215.731949	1254.628540	1297.343628	1263.124268	19.889290
216.113358	1253.961792	1301.021484	1261.339111	15.676515
216.494736	1254.542603	1302.505493	1260.779907	13.004438
216.876083	1258.156006	1306.893066	1262.134888	8.163976
217.257401	1258.543091	1309.237427	1263.618896	10.012569
217.638702	1260.457275	1314.420898	1266.436401	11.079920
218.019943	1260.607910	1316.421265	1267.576416	12.485373
218.401169	1260.048706	1319.152710	1266.350464	10.662150
218.782349	1262.521973	1321.927246	1268.049561	9.304877
219.163498	1263.059692	1323.755371	1269.619629	10.807914
219.544632	1262.479004	1325.282593	1269.038940	10.445162
219.925705	1262.070313	1328.229248	1268.953003	10.403267
220.306778	1261.704712	1329.971313	1268.092651	9.357342
220.687805	1260.328247	1330.100464	1268.953003	12.361304
221.068802	1259.102417	1331.304810	1271.383301	17.008970
221.449738	1259.575439	1335.176270	1274.588013	19.857683
221.830673	1260.844482	1340.144653	1275.598877	18.605753
222.211563	1260.564819	1345.908691	1278.007813	20.438484
222.592438	1260.005615	1350.704956	1280.997437	23.144403
222.973267	1257.661133	1356.189453	1284.696777	27.439466
223.354065	1257.489136	1360.684570	1287.664917	29.241392
223.734848	1257.983765	1367.545776	1290.482544	29.662453
224.115555	1257.058838	1371.632324	1294.353882	32.551201
224.496262	1259.274292	1378.923584	1299.193237	33.363293
224.876923	1259.166748	1387.118164	1302.225952	33.652775
225.257568	1258.413940	1396.839844	1308.205200	35.969612
225.638168	1257.467651	1405.399902	1312.700317	37.336460
226.018723	1255.510376	1415.358154	1317.969727	39.074268
226.399277	1256.671875	1429.618042	1324.744873	39.360802
226.779785	1256.284668	1448.308594	1331.347778	39.090500
227.160263	1256.564331	1469.364868	1338.897095	38.690109
227.540695	1255.811523	1498.056519	1348.317627	38.187004
227.921112	1255.682495	1535.050659	1362.061279	38.078350
228.301483	1256.327637	1587.142944	1380.192505	37.442303
228.681824	1255.940552	1654.613770	1407.852051	38.104263
229.062134	1257.187988	1742.345215	1439.963379	37.673435
229.442413	1256.822388	1835.195313	1471.236084	37.071877
229.822647	1256.736450	1917.162231	1498.271606	36.572643
230.202881	1256.370850	1976.868774	1521.005737	36.729446
230.583054	1255.919067	2022.057129	1536.018311	36.559891
230.963196	1257.231079	2059.610352	1549.374878	36.409691
231.343292	1256.671875	2089.786133	1561.075073	36.537991
231.723404	1257.381592	2115.445068	1568.925659	36.307812
232.103439	1258.865601	2118.628174	1571.506592	36.363644
232.483459	1259.683105	2104.992188	1566.430786	36.288227
232.863434	1258.586060	2070.450195	1550.041504	35.899536
233.243393	1258.285034	2015.389771	1531.028198	36.024494
233.623306	1259.682983	1957.339478	1509.477417	35.804790
234.003174	1262.436035	1916.216064	1495.002319	35.572559
234.383041	1264.672852	1894.191772	1487.840210	35.450462
234.762848	1262.823120	1883.179688	1484.549438	35.741753
235.142639	1262.758667	1874.318359	1483.022339	36.016708
235.522385	1263.877075	1869.134888	1476.613037	35.147991
235.902115	1263.984619	1861.284424	1475.709595	35.447018
236.281799	1261.790894	1867.285156	1474.591187	35.144890
236.661438	1260.521851	1877.587524	1476.828003	35.053993
237.041077	1259.962646	1886.642456	1482.183594	35.460045
237.420654	1258.521606	1899.052368	1484.334473	35.254025
237.800217	1259.618530	1908.171875	1485.237793	34.788082
238.179733	1258.392456	1913.032715	1484.850708	34.592777
238.559219	1255.639526	1920.151855	1485.065796	34.525509
238.938690	1257.015991	1925.270630	1488.119995	34.583225
239.318100	1257.059082	1934.110840	1492.141846	34.721535
239.697510	1257.037476	1949.876099	1498.443726	34.843071
240.076859	1259.962524	1975.535156	1505.369263	34.295155
240.456177	1263.360840	2010.206177	1519.521484	34.299023
240.835464	1266.350464	2052.361816	1534.598755	34.127789
241.214722	1268.243286	2118.499023	1553.332397	33.529808
241.593948	1271.835083	2203.584961	1581.249878	33.207924
241.973129	1272.007080	2313.103760	1619.921143	33.418037
242.352295	1273.104004	2449.937988	1668.830444	33.626362
242.731415	1274.028809	2594.773438	1716.944092	33.535271
243.110519	1276.136597	2738.920410	1762.605469	33.256374
243.489578	1279.879028	2854.095703	1797.039917	32.851952
243.868607	1280.524292	2936.471680	1823.752808	32.804695
244.247604	1278.610107	2992.048340	1840.185059	32.774742
244.626541	1278.545654	3030.138916	1849.906738	32.619507
245.005493	1277.706665	3060.357910	1856.273071	32.455391
245.384369	1278.093872	3082.252930	1863.370728	32.440426
245.763229	1277.039917	3105.395264	1869.393066	32.398140
246.142059	1276.695801	3143.271240	1881.566528	32.405373
246.520859	1278.373413	3211.688232	1901.676636	32.240131
246.899612	1283.535278	3337.144531	1938.842529	31.910025
247.278336	1285.127075	3500.261475	1990.139038	31.827053
247.657043	1286.783081	3670.949219	2046.683716	31.872807
248.035690	1292.074097	3825.097412	2095.700439	31.725973
248.414322	1294.633545	3956.468994	2138.394043	31.698446
248.792908	1296.332642	4057.556885	2173.645752	31.772615
249.171478	1296.440308	4134.491211	2201.304932	31.883314
249.550003	1297.472656	4170.065430	2212.446289	31.851839
249.928482	1299.150269	4163.354980	2209.865479	31.796444
250.306961	1300.655762	4105.949707	2187.583008	31.616196
250.685364	1299.193237	3984.687500	2146.911377	31.566561
251.063782	1295.364746	3801.374268	2086.968506	31.588219
251.442123	1292.891357	3596.402344	2017.884766	31.473408
251.820450	1288.761841	3427.220215	1961.038696	31.437452
252.198761	1285.148438	3321.271729	1925.701050	31.459421
252.576996	1283.771973	3252.962402	1903.741333	31.483463
252.955246	1284.266724	3202.784180	1887.782349	31.457396
253.333420	1282.395508	3155.960938	1870.984497	31.415449
253.711578	1282.094360	3120.386719	1857.025757	31.275297
254.089706	1281.234009	3094.641602	1850.981934	31.418636
254.467804	1278.696167	3074.488281	1845.798462	31.579508
254.845871	1278.954224	3059.067383	1841.109863	31.579769
255.223877	1279.362915	3035.322754	1836.507324	31.728767
255.601898	1279.986572	3003.275635	1829.215942	31.870995
255.979828	1278.072266	2957.786133	1814.224976	31.919289
256.357727	1275.921509	2903.155518	1796.803223	32.010254
256.735657	1277.986328	2861.386719	1782.263794	31.847754
257.113525	1275.469849	2853.579346	1775.230835	31.668333
257.491333	1275.814087	2883.432617	1781.898071	31.480352
257.869110	1277.921875	2942.601318	1803.019043	31.543440
258.246887	1279.448975	3030.805664	1829.473877	31.405647
258.624573	1278.932617	3157.036133	1866.596924	31.290304
259.002289	1279.792969	3341.295898	1920.237915	31.066895
259.379944	1281.255493	3600.080322	1996.010864	30.824036
259.757538	1282.567505	3934.035400	2095.700439	30.667276
260.135162	1288.331665	4299.199219	2209.327393	30.589046
260.512665	1292.977417	4625.433105	2310.372314	30.529886
260.890228	1291.622437	4865.914551	2385.413818	30.601624
261.267700	1292.805298	5017.804199	2432.602539	30.598591
261.645142	1295.235718	5103.686035	2460.154297	30.587732
262.022552	1294.805542	5155.219238	2473.962646	30.544838
262.399994	1293.084839	5181.330078	2479.103027	30.502661
262.777313	1296.268066	5170.166992	2474.134521	30.405193
263.154602	1296.010010	5093.103516	2452.777100	30.464540
263.531921	1295.536865	4939.601074	2402.319336	30.372200
263.909149	1293.988281	4691.892578	2327.772461	30.424170
264.286377	1290.611450	4405.685547	2235.567383	30.334942
264.663574	1287.385254	4147.826172	2152.266602	30.235945
265.040710	1289.364136	3970.470947	2094.130371	30.016193
265.417816	1288.245605	3871.103271	2063.008301	29.996338
265.794891	1288.611206	3844.691650	2053.845947	29.937819
266.171936	1288.976929	3865.167236	2056.383789	29.788437
266.548950	1289.170532	3915.560791	2071.568604	29.789865
266.925934	1287.621948	3973.847412	2087.312500	29.770044
267.302887	1286.912231	4037.941162	2101.335693	29.604322
267.679810	1286.202515	4101.884766	2116.735352	29.496683
268.056671	1288.869385	4178.711426	2139.899414	29.449015
268.433502	1289.901733	4260.613770	2160.504150	29.306189
268.810333	1290.138184	4344.064453	2184.270508	29.278124
269.187073	1288.159546	4420.568848	2206.595947	29.320448
269.563843	1291.127808	4495.244629	2226.125244	29.181129
269.940521	1290.525513	4550.649414	2237.223389	29.038708
270.317200	1290.826538	4602.333496	2250.708984	28.986275
270.693848	1291.837402	4668.664063	2265.807617	28.842766
271.070435	1295.063599	4802.809570	2301.145508	28.681721
271.447021	1298.569458	4975.347168	2351.108398	28.626667
271.823547	1300.892456	5153.003418	2404.427002	28.647528
272.200043	1301.236450	5297.623535	2437.613770	28.435116
272.576538	1301.731201	5417.380371	2474.263428	28.489605
272.952972	1303.602417	5524.404297	2502.331543	28.400507
273.329346	1305.452026	5626.266602	2525.990479	28.247879
273.705688	1305.495117	5704.082520	2546.379883	28.210983
274.082062	1306.118896	5763.487793	2563.134521	28.200842
274.458344	1304.914429	5788.759766	2570.942139	28.235313
274.834595	1307.861206	5770.413574	2564.769287	28.165678
275.210846	1304.936035	5690.102051	2542.551514	28.222775
275.587006	1301.774292	5586.046387	2508.353760	28.162998
275.963165	1300.913818	5493.390137	2480.371582	28.132721
276.339294	1300.182495	5446.760742	2467.294922	28.146399
276.715393	1300.763184	5423.337891	2458.454834	28.081762
277.091461	1301.064331	5414.713867	2457.745361	28.118124
277.467438	1302.591553	5411.982422	2456.282715	28.074507
277.843445	1302.526978	5416.176270	2452.884521	27.964403
278.219452	1303.602417	5431.188965	2453.486816	27.858519
278.595337	1304.226196	5454.288574	2458.024902	27.801960
278.971191	1304.570313	5486.980957	2462.283691	27.680529
279.347046	1307.344849	5512.983887	2465.746338	27.544006
279.722870	1309.753784	5537.567871	2472.715088	27.507391
280.098663	1310.377441	5561.312988	2478.307129	27.474651
280.474396	1310.979614	5597.123535	2484.652100	27.382946
280.850098	1312.055054	5649.495605	2497.363281	27.327366
281.225800	1313.108887	5724.945801	2511.020996	27.152229
281.601440	1313.517578	5833.131348	2538.120850	27.095308
281.977051	1313.797119	5982.203613	2578.190430	27.084045
282.352600	1314.700439	6137.964355	2619.636475	27.055042
282.728149	1317.496582	6282.090332	2656.888428	26.978882
283.103668	1317.475098	6392.448242	2687.322510	26.992210
283.479156	1319.604370	6480.501953	2712.357666	26.986649
283.854553	1319.668945	6564.039551	2727.929443	26.852802
284.229950	1320.851929	6661.018555	2748.620117	26.736399
284.605347	1322.895142	6765.247070	2776.214844	26.703890
284.980652	1320.787354	6863.861328	2797.421875	26.639271
285.355988	1320.916382	6953.184570	2823.081055	26.670689
285.731201	1319.260254	7031.666992	2843.642822	26.685471
286.106445	1319.776489	7098.621582	2862.225586	26.691303
286.481659	1320.228027	7166.027832	2878.872803	26.662643
286.856781	1320.464722	7232.853516	2892.014404	26.580622
287.231934	1318.894653	7298.947266	2907.070068	26.557882
287.607025	1316.464233	7346.716797	2915.200195	26.511925
287.982056	1316.894409	7365.557617	2923.631104	26.563501
288.357086	1315.732910	7357.599609	2921.416016	26.575943
288.732086	1311.667969	7326.048340	2914.447510	26.649122
289.107025	1310.850708	7290.688965	2905.177246	26.661699
289.481934	1310.571045	7261.221680	2892.293701	26.580669
289.856842	1311.818359	7236.639160	2887.067383	26.587286
290.231659	1311.022583	7237.713867	2883.647461	26.534616
290.606506	1311.689331	7248.296387	2886.809326	26.532328
290.981262	1312.184082	7264.535645	2892.143311	26.543446
291.355988	1309.947144	7285.590820	2898.832275	26.589355
291.730713	1311.646362	7312.411133	2905.026611	26.552954
292.105377	1310.377319	7339.360840	2912.489990	26.573513
292.480011	1310.484985	7357.492188	2913.436035	26.508171
292.854614	1312.549683	7364.181152	2912.145508	26.432472
293.229187	1313.861694	7380.162109	2916.103271	26.412170
293.603729	1313.517578	7405.820801	2925.287109	26.455832
293.978241	1312.506714	7443.051270	2939.761963	26.543406
294.352692	1314.033691	7473.033203	2952.064697	26.595732
294.727081	1313.603638	7494.950195	2960.603271	26.644674
295.101501	1311.560425	7516.952637	2971.572510	26.751123
295.475830	1314.722168	7571.195801	2991.725586	26.804291
295.850189	1317.367676	7669.617676	3029.730469	26.956791
296.224457	1320.572266	7832.454590	3076.639160	26.967117
296.598694	1323.067261	8046.718262	3145.529541	27.105249
296.972931	1324.938354	8301.458984	3221.926025	27.191029
297.347107	1326.938599	8538.541016	3290.773193	27.231598
297.721283	1328.874390	8714.519531	3343.575195	27.278603
298.095367	1331.175781	8806.853516	3370.030273	27.273172
298.469452	1331.648926	8820.446289	3377.794678	27.322756
298.843475	1328.057129	8795.217773	3372.051758	27.373117
299.217529	1329.046387	8756.138672	3364.287598	27.402935
299.591492	1328.444214	8698.583984	3348.543945	27.409246
299.965424	1325.196533	8618.014648	3321.142822	27.368654
300.339325	1323.841553	8485.374023	3283.675781	27.366131
300.713196	1320.120605	8301.758789	3232.120850	27.386126
301.087036	1318.830078	8080.785645	3172.780273	27.417368
301.460815	1318.313965	7865.405762	3118.127930	27.490282
301.834564	1318.830200	7684.758301	3070.982666	27.523912
302.208282	1315.969482	7537.729980	3030.332275	27.554302
302.582001	1314.270386	7416.811035	2994.134277	27.527288
302.955658	1316.012573	7311.185547	2964.324219	27.493980
303.329254	1312.506714	7221.174805	2937.288574	27.498276
303.702820	1310.958130	7142.068359	2914.554688	27.500708
304.076416	1310.807495	7075.995117	2895.756836	27.491722
304.449921	1307.430786	7021.515137	2880.335693	27.526806
304.823395	1309.603027	6969.917480	2865.107910	27.480892
305.196838	1308.527588	6920.384277	2843.965332	27.360603
305.570251	1308.183594	6865.559570	2823.532959	27.267353
305.943604	1304.828369	6805.509766	2800.949219	27.198826
306.316986	1304.312256	6761.246582	2781.699707	27.073578
306.690277	1306.420044	6728.404297	2766.084717	26.921227
307.063507	1305.581177	6712.079590	2761.030273	26.920364
307.436768	1305.989746	6721.134277	2758.341797	26.820190
307.809937	1307.258789	6748.900391	2764.622314	26.781689
308.183136	1308.011597	6803.165527	2777.720459	26.745546
308.556244	1310.054810	6877.411133	2796.561523	26.700405
308.929321	1309.172974	6967.895508	2812.649414	26.569183
309.302399	1310.226929	7060.530762	2831.748535	26.459848
309.675446	1309.043945	7157.489258	2852.310303	26.387634
310.048401	1308.054565	7253.113770	2876.312988	26.379190
310.421356	1309.237427	7348.910645	2898.315918	26.310669
310.794281	1307.839355	7451.095215	2926.598877	26.350189
311.167145	1308.248047	7564.163574	2952.064209	26.276188
311.539978	1312.119507	7661.917480	2977.013672	26.219641
311.912781	1313.324097	7733.152832	2993.317139	26.168814
312.285553	1312.012207	7749.498047	2994.585938	26.137125
312.658295	1312.399292	7722.591797	2981.444580	26.037367
313.031006	1312.227295	7670.456055	2967.916016	26.040094
313.403656	1311.839966	7615.524902	2955.355225	26.072294
313.776276	1313.603638	7565.497070	2939.740479	26.010309
314.148865	1316.313599	7539.773438	2930.986816	25.944944
314.521454	1316.442627	7537.837402	2930.728760	25.947336
314.893982	1316.958862	7538.117188	2927.803467	25.893002
315.266449	1319.109619	7502.563965	2915.651367	25.819578
315.638885	1316.851440	7438.685547	2896.960938	25.811049
316.011322	1317.281494	7355.319824	2869.129639	25.701199
316.383667	1318.270752	7282.773438	2845.986816	25.613468
316.756042	1318.722534	7224.507813	2830.071045	25.590984
317.128326	1319.754883	7172.802734	2814.864746	25.544125
317.500610	1316.872803	7118.904297	2800.131836	25.564478
317.872833	1315.517700	7058.530762	2784.538574	25.579271
318.245087	1312.592651	6980.606445	2759.546143	25.528404
