Jaz Data File
++++++++++++++++++++++++++++++++++++
Date: Mon Apr 22 19:25:23 2019
User: jaz
Dark Spectrum Present: Yes
Reference Spectrum Present: Yes
Processed Spectrum Present: Yes
Spectrometers: JAZA2928
Integration Time (usec): 40000 (JAZA2928)
Spectra Averaged: 10 (JAZA2928)
Boxcar Smoothing: 5 (JAZA2928)
Correct for Electrical Dark: No (JAZA2928)
Strobe/Lamp Enabled: Yes (JAZA2928)
Correct for Detector Non-linearity: No (JAZA2928)
Correct for Stray Light: No (JAZA2928)
Number of Pixels in Processed Spectrum: 2048
>>>>>Begin Processed Spectral Data<<<<<
W	D	R	S	P
190.104553	0.000000	0.000000	0.000000	0.000000
190.488098	0.000000	0.000000	0.000000	0.000000
190.871613	1085.940918	1056.130981	1080.026245	19.841280
191.255096	1070.326050	1101.319336	1075.531250	16.794605
191.638535	0.000000	0.000000	0.000000	0.000000
192.021942	909.790100	910.671936	905.208923	-519.504456
192.405334	1011.974854	1014.813904	1007.694702	-150.759964
192.788696	1115.987793	1119.256958	1112.417358	-109.215492
193.172012	1123.859741	1125.967529	1118.740723	-242.862106
193.555313	1129.924927	1129.688354	1124.870605	2136.480957
193.938568	1131.301514	1135.388062	1129.731445	-38.420406
194.321793	1133.688843	1137.689331	1133.710449	0.540095
194.704987	1135.775146	1138.614136	1135.108521	-23.481102
195.088150	1136.871948	1135.818115	1135.129883	165.307541
195.471298	1134.785767	1136.377319	1132.871582	-120.271515
195.854401	1133.774902	1137.474121	1132.979004	-21.515312
196.237457	1133.538208	1135.990112	1134.570679	42.108932
196.620499	1134.333984	1133.925415	1135.452515	-273.767548
197.003494	1134.441528	1132.763916	1132.527466	114.094444
197.386475	1128.849487	1133.882446	1129.924927	21.367935
197.769424	1126.268555	1133.516724	1128.677490	33.235092
198.152344	1126.440552	1134.656738	1131.086304	56.543896
198.535217	1125.193237	1135.603027	1132.936035	74.379959
198.918076	1121.085083	1139.818726	1133.495239	66.245293
199.300903	1118.375122	1144.485840	1133.495239	57.907703
199.683670	1118.031006	1145.217163	1134.936401	62.183838
200.066422	1119.235474	1145.432251	1137.130249	68.309074
200.449142	1119.106567	1147.733643	1136.527954	60.856327
200.831848	1116.633057	1148.787476	1135.409546	58.394741
201.214508	1114.181152	1148.873535	1135.990234	62.864182
201.597137	1114.589722	1148.615356	1136.871948	65.486588
201.979736	1114.503662	1149.647827	1136.721436	63.218952
202.362274	1113.815308	1148.249878	1132.226440	53.467003
202.744827	1111.922729	1148.228271	1128.591553	45.912613
203.127319	1111.621582	1146.314087	1129.753052	52.263363
203.509796	1112.202271	1145.088013	1130.118652	54.480698
203.892227	1112.417480	1143.130737	1125.989014	44.187866
204.274643	1109.793457	1141.022949	1121.966919	38.980659
204.657013	1108.890137	1140.205688	1120.655029	37.568851
205.039352	1109.492310	1139.797119	1120.289307	35.627998
205.421661	1111.212891	1139.861572	1119.751587	29.804850
205.803940	1110.331177	1139.904541	1119.471924	30.908716
206.186188	1110.911865	1139.388428	1118.245972	25.754887
206.568405	1111.772217	1138.528198	1116.998535	19.533272
206.950592	1114.116577	1138.958252	1117.063110	11.861250
207.332748	1113.793945	1135.925659	1114.761841	4.373342
207.714859	1111.815186	1136.205322	1116.245728	18.165302
208.096939	1107.836182	1135.409546	1117.686768	35.725006
208.478989	1107.728638	1133.839355	1121.214111	51.647274
208.861008	1107.492065	1134.570679	1123.343506	58.538597
209.243011	1105.169067	1134.936401	1123.902710	62.933559
209.624969	1102.717163	1136.334351	1125.085693	66.538971
210.006897	1102.502075	1134.678223	1123.536987	65.374237
210.388794	1100.716919	1135.990234	1124.547974	67.561142
210.770645	1099.297363	1136.828979	1129.086182	79.369934
211.152481	1097.834839	1136.893555	1128.053833	77.368118
211.534286	1097.791870	1140.657349	1127.150513	68.490181
211.916061	1099.103882	1141.130615	1125.322266	62.385014
212.297791	1100.114746	1145.475220	1125.257690	55.429192
212.679489	1101.383667	1147.733521	1123.494019	47.703175
213.061157	1101.878418	1147.475464	1120.224731	40.235748
213.442795	1104.115234	1147.819580	1119.256958	34.645809
213.824402	1103.556152	1147.970215	1118.547363	33.753300
214.205963	1105.169067	1150.508057	1118.547119	29.506727
214.587524	1106.975830	1149.475708	1119.063354	28.441315
214.969025	1105.685425	1149.948853	1117.923340	27.647915
215.350510	1105.448730	1150.551025	1118.934326	29.900021
215.731949	1101.448364	1150.766113	1120.697876	39.031612
216.113358	1102.717285	1150.809082	1122.719727	41.592209
216.494736	1103.039917	1149.540161	1125.042480	47.317093
216.876083	1102.007568	1149.970337	1124.246826	46.367752
217.257401	1099.598633	1150.228394	1126.505249	53.143875
217.638702	1100.200928	1152.594238	1127.085938	51.313820
218.019943	1099.168457	1151.519043	1126.290039	51.807598
218.401169	1097.168335	1151.454590	1127.623535	56.101128
218.782349	1096.888550	1155.368896	1128.935547	54.799603
219.163498	1098.523193	1157.369263	1128.462402	50.877159
219.544632	1101.856934	1159.218872	1130.419556	49.793682
219.925705	1105.599365	1161.563232	1133.430786	49.731052
220.306778	1105.814453	1164.509888	1136.786011	52.766552
220.687805	1107.900757	1166.639282	1135.560059	47.088860
221.068802	1108.803955	1169.843872	1138.076294	47.956059
221.449738	1110.094604	1175.522095	1139.603516	45.101700
221.830673	1108.309326	1179.156860	1140.463989	45.385719
222.211563	1108.954590	1185.587891	1142.528687	43.811367
222.592438	1108.954590	1191.846680	1147.131470	46.056118
222.973267	1107.922119	1195.911621	1148.830566	46.492416
223.354065	1108.631958	1201.761841	1151.777222	46.328056
223.734848	1106.352051	1206.730225	1154.917480	48.382462
224.115555	1108.330933	1213.935425	1159.606201	48.554062
224.496262	1107.900757	1221.119019	1161.541870	47.378498
224.876923	1108.718018	1231.227905	1168.596313	48.876297
225.257568	1106.029419	1241.035522	1173.801270	50.199100
225.638168	1108.717896	1250.284058	1180.791382	50.911522
226.018723	1111.836670	1262.651245	1191.975586	53.137383
226.399277	1112.675537	1279.104980	1203.805054	54.755646
226.779785	1114.353149	1296.892090	1214.300903	54.754211
227.160263	1116.073975	1316.701050	1226.087402	54.834785
227.540695	1116.353394	1346.403564	1242.605713	54.880341
227.921112	1115.987915	1386.473145	1264.328735	54.842484
228.301483	1114.374756	1440.436646	1293.300049	54.874641
228.681824	1115.105957	1509.004272	1331.799561	55.012573
229.062134	1113.922974	1591.487793	1374.493042	54.562241
229.442413	1115.170410	1669.604736	1414.110840	53.918095
229.822647	1109.901123	1732.429810	1446.394409	54.052654
230.202881	1106.524292	1781.425049	1467.966919	53.554932
230.583054	1106.610229	1816.418457	1480.850098	52.724083
230.963196	1104.696167	1848.357910	1494.529297	52.420757
231.343292	1104.954224	1876.791748	1504.939087	51.822418
231.723404	1103.663696	1890.599731	1510.832397	51.741016
232.103439	1103.018433	1883.308716	1506.509399	51.710365
232.483459	1102.996948	1859.865112	1489.561035	51.074165
232.863434	1102.652710	1820.569824	1465.299927	50.513802
233.243393	1103.534668	1769.531128	1436.264038	49.959629
233.623306	1103.082886	1726.041870	1414.820435	50.041424
234.003174	1107.621094	1700.425781	1397.829224	48.955101
234.383041	1107.298462	1685.112183	1390.301270	48.978207
234.762848	1106.997314	1678.293823	1389.677612	49.480488
235.142639	1108.072754	1668.916382	1386.773926	49.693203
235.522385	1106.739258	1663.324341	1384.816650	49.961346
235.902115	1107.513550	1663.001831	1381.934692	49.401787
236.281799	1106.459717	1673.992310	1383.633667	48.838421
236.661438	1108.266357	1684.789429	1388.989380	48.692417
237.041077	1109.341797	1696.210205	1392.774780	48.295834
237.420654	1109.771973	1703.372314	1397.786133	48.519878
237.800217	1111.019409	1709.674194	1399.313232	48.156940
238.179733	1109.965576	1713.717651	1402.324341	48.423645
238.559219	1110.610840	1719.245239	1405.034302	48.374435
238.938690	1110.374146	1728.042114	1407.421753	48.091793
239.318100	1108.352417	1744.603394	1412.131958	47.745239
239.697510	1107.728638	1762.949707	1419.874878	47.639835
240.076859	1109.040771	1791.447998	1434.134644	47.639278
240.456177	1111.019409	1828.248169	1453.384277	47.734402
240.835464	1109.083740	1878.577026	1475.451660	47.611580
241.214722	1105.642456	1948.692993	1504.853149	47.353115
241.593948	1105.879028	2045.264160	1544.513794	46.693817
241.973129	1104.975586	2163.407959	1596.090210	46.400188
242.352295	1103.964722	2299.984131	1655.452393	46.110260
242.731415	1105.577759	2437.377197	1713.932739	45.679173
243.110519	1106.545654	2551.197754	1763.551636	45.478493
243.489578	1107.685547	2640.972412	1799.491699	45.119160
243.868607	1108.954590	2704.593262	1826.806763	44.988392
244.247604	1107.040405	2749.286865	1844.292969	44.892929
244.626541	1106.137085	2783.979492	1856.187012	44.703239
245.005493	1107.363037	2812.025879	1867.328125	44.581547
245.384369	1111.535645	2835.254639	1878.318848	44.484234
245.763229	1108.976196	2866.355225	1890.901123	44.493813
246.142059	1109.901001	2917.522705	1911.742310	44.358910
246.520859	1110.481689	3011.448242	1951.273926	44.229721
246.899612	1107.707153	3150.024170	2011.173706	44.237331
247.278336	1106.309204	3317.572510	2081.591309	44.105202
247.657043	1106.330688	3471.398193	2150.847168	44.164345
248.035690	1106.137085	3596.596680	2207.993896	44.243114
248.414322	1105.534790	3703.921143	2254.860107	44.232273
248.792908	1104.825073	3784.081787	2289.294434	44.208878
249.171478	1105.061646	3831.851318	2310.178711	44.195457
249.550003	1102.158081	3843.164307	2314.609375	44.233803
249.928482	1102.158203	3801.654053	2297.489014	44.279781
250.306961	1100.996704	3715.320313	2256.559082	44.201199
250.685364	1100.996582	3567.387695	2188.873291	44.108036
251.063782	1102.566650	3382.203857	2107.852539	44.098503
251.442123	1102.824829	3203.773193	2031.305420	44.193405
251.820450	1105.212036	3077.284424	1975.406128	44.125870
252.198761	1103.857300	3009.146973	1944.090576	44.100029
252.576996	1104.566895	2958.043945	1923.442505	44.180511
252.955246	1105.276733	2910.575684	1903.010254	44.188446
253.333420	1103.340942	2869.366455	1885.351929	44.280842
253.711578	1103.383911	2838.244385	1874.705444	44.460148
254.089706	1104.072266	2820.155762	1868.941284	44.570618
254.467804	1106.352173	2801.766357	1864.467651	44.715649
254.845871	1106.502686	2784.409180	1860.746826	44.951500
255.223877	1107.621094	2757.760742	1849.734497	44.972763
255.601898	1107.406006	2719.110840	1835.582397	45.180504
255.979828	1104.029175	2669.427490	1814.310913	45.373867
256.357727	1103.233521	2625.421875	1791.211060	45.196609
256.735657	1104.803589	2602.343994	1777.661255	44.930851
257.113525	1105.685425	2616.797607	1781.941284	44.752193
257.491333	1110.094482	2666.932617	1800.158691	44.324722
257.869110	1112.911987	2739.887695	1829.043823	44.016136
258.246887	1113.793945	2846.051514	1871.586670	43.745960
258.624573	1111.686035	2998.500244	1934.841797	43.626751
259.002289	1110.137573	3210.698975	2020.314575	43.330177
259.379944	1108.137207	3491.164063	2138.329590	43.230415
259.757538	1107.986572	3829.807861	2275.851807	42.907490
260.135162	1112.094727	4167.957031	2413.869141	42.599251
260.512665	1114.224121	4430.354980	2526.614258	42.591507
260.890228	1113.729370	4604.785156	2603.527100	42.674706
261.267700	1112.654053	4711.680176	2644.607422	42.565777
261.645142	1108.266357	4771.945801	2669.341553	42.609493
262.022552	1104.997192	4809.756836	2680.310791	42.521343
262.399994	1102.394653	4815.177246	2681.084961	42.520405
262.777313	1103.792725	4772.375977	2659.275635	42.400097
263.154602	1104.395020	4660.813965	2610.151367	42.339115
263.531921	1107.857666	4471.070313	2526.592773	42.183926
263.909149	1108.287964	4217.984863	2416.901611	42.081711
264.286377	1104.523926	3950.252930	2302.951904	42.113216
264.663574	1103.104370	3746.120850	2212.273926	41.966045
265.040710	1102.330200	3628.600098	2151.922607	41.547119
265.417816	1101.469849	3578.636963	2130.349854	41.534542
265.794891	1102.975464	3585.153809	2126.715088	41.243599
266.171936	1106.696289	3623.459961	2137.533691	40.958847
266.548950	1106.610229	3677.552490	2152.116211	40.666256
266.925934	1106.954468	3735.409180	2171.538086	40.502266
267.302887	1108.567505	3797.868164	2193.196777	40.331276
267.679810	1105.620972	3870.414795	2217.027588	40.198532
268.056671	1106.244629	3946.532227	2245.525635	40.111465
268.433502	1108.524536	4030.349121	2273.614990	39.875439
268.810333	1109.449341	4110.165527	2300.263428	39.684326
269.187073	1108.503052	4182.066895	2330.890869	39.771023
269.563843	1111.578613	4243.815918	2352.312744	39.611755
269.940521	1108.395386	4289.671387	2369.605469	39.644787
270.317200	1105.298218	4349.291016	2389.758545	39.595043
270.693848	1106.180054	4451.948730	2426.967529	39.476357
271.070435	1104.158203	4608.871582	2484.652100	39.389637
271.447021	1101.254761	4783.947266	2550.014893	39.339699
271.823547	1102.717285	4933.234863	2605.527100	39.232552
272.200043	1102.717285	5055.529785	2648.908936	39.116241
272.576538	1101.211792	5159.607422	2690.139893	39.151634
272.952972	1101.297729	5254.608398	2727.757568	39.160564
273.329346	1101.297852	5336.961914	2755.976074	39.065380
273.705688	1099.856689	5394.947754	2778.387451	39.080215
274.082062	1103.878662	5434.350586	2788.668213	38.905453
274.458344	1104.545410	5430.414551	2788.474365	38.926952
274.834595	1104.975586	5373.891113	2763.224121	38.844727
275.210846	1107.062012	5279.556641	2724.574219	38.766071
275.587006	1109.406372	5188.491699	2685.816650	38.646168
275.963165	1107.535156	5131.560547	2660.050293	38.581146
276.339294	1108.223389	5102.933105	2648.543213	38.558994
276.715393	1108.804199	5097.857422	2642.176758	38.439510
277.091461	1108.352417	5095.986328	2638.627930	38.375526
277.467438	1107.363159	5100.395508	2637.509521	38.320412
277.843445	1106.395142	5116.333008	2639.014893	38.220535
278.219452	1103.599121	5136.120605	2645.144775	38.227837
278.595337	1103.642090	5168.790527	2650.048584	38.040592
278.971191	1105.470215	5202.988770	2662.888916	38.008827
279.347046	1102.846191	5224.970215	2667.943359	37.968220
279.722870	1103.512939	5245.789551	2672.610596	37.880081
280.098663	1105.126099	5272.502930	2676.546631	37.707664
280.474396	1104.244263	5315.346680	2687.193115	37.589890
280.850098	1105.577759	5378.472656	2707.948242	37.500816
281.225800	1106.889771	5478.054688	2736.640137	37.284119
281.601440	1108.416870	5604.263672	2774.149902	37.050488
281.977051	1109.771973	5762.928711	2826.758789	36.899399
282.352600	1110.804321	5917.786621	2879.001709	36.783936
282.728149	1108.739502	6036.618652	2922.749023	36.811161
283.103668	1107.104858	6125.898438	2953.290527	36.785450
283.479156	1107.836182	6205.370605	2981.487549	36.756035
283.854553	1106.352173	6286.821777	3007.404785	36.696529
284.229950	1106.266113	6379.285645	3040.484131	36.681412
284.605347	1105.190796	6472.673340	3071.004150	36.624496
284.980652	1102.545288	6548.875488	3097.781494	36.634506
285.355988	1103.169067	6627.101074	3127.247559	36.641987
285.731201	1103.556152	6698.250000	3155.939209	36.684456
286.106445	1102.781982	6752.944824	3173.791260	36.653973
286.481659	1102.846313	6808.629395	3197.321045	36.707924
286.856781	1104.201294	6870.120117	3215.925537	36.624241
287.231934	1105.771362	6928.987793	3230.163818	36.481430
287.607025	1107.169556	6960.324707	3238.508789	36.413509
287.982056	1108.761108	6965.078125	3237.132568	36.343178
288.357086	1108.416870	6943.226074	3227.066406	36.310516
288.732086	1109.750244	6915.803223	3209.365479	36.162525
289.107025	1111.320313	6892.854492	3190.244629	35.958004
289.481934	1108.933105	6867.646484	3174.372070	35.866325
289.856842	1108.954590	6862.871582	3167.725830	35.780342
290.231659	1109.341675	6882.121582	3165.058594	35.610519
290.606506	1108.244751	6897.220215	3161.681885	35.471508
290.981262	1107.900757	6926.707520	3168.349365	35.410160
291.355988	1106.266113	6951.720703	3178.200195	35.445217
291.730713	1105.577759	6984.929688	3188.825195	35.433285
292.105377	1101.792358	7000.609375	3197.708008	35.531116
292.480011	1100.673950	7013.320801	3206.849121	35.621529
292.854614	1098.802734	7021.666016	3222.334473	35.853127
293.229187	1098.308105	7052.701660	3244.832031	36.049412
293.603729	1097.834839	7084.898926	3269.458740	36.271935
293.978241	1098.114502	7114.063965	3289.719482	36.429913
294.352692	1096.200317	7137.701660	3317.271240	36.763557
294.727081	1095.963745	7172.070801	3347.855713	37.061428
295.101501	1097.555298	7206.290527	3382.010254	37.396530
295.475830	1096.996216	7287.849609	3429.156250	37.671059
295.850189	1097.340332	7413.284180	3495.400635	37.968361
296.224457	1100.889038	7610.577637	3588.379883	38.212132
296.598694	1102.416138	7846.520508	3694.543945	38.435467
296.972931	1104.997192	8089.367676	3809.698242	38.725052
297.347107	1104.029297	8281.477539	3899.924072	38.953884
297.721283	1105.556274	8400.868164	3962.361572	39.159466
298.095367	1105.255249	8443.261719	3996.279785	39.397953
298.469452	1107.943848	8421.086914	4005.077393	39.615437
298.843475	1109.987061	8373.726563	3997.828857	39.756958
299.217529	1109.793457	8323.332031	3986.322021	39.876804
299.591492	1111.858276	8247.838867	3972.255615	40.084156
299.965424	1111.492554	8143.653320	3941.606445	40.245296
300.339325	1109.857910	7988.924805	3886.632080	40.365562
300.713196	1107.513550	7790.879395	3816.924316	40.539612
301.087036	1107.319946	7579.626953	3732.634521	40.562267
301.460815	1109.965454	7387.646973	3661.270996	40.640888
301.834564	1109.728882	7243.758301	3602.962402	40.645931
302.208282	1108.029785	7116.881348	3554.698486	40.717743
302.582001	1107.040527	7010.502930	3510.714844	40.716347
302.955658	1106.072632	6917.976074	3472.452148	40.716084
303.329254	1104.287354	6834.223145	3437.114258	40.712971
303.702820	1103.082886	6764.752930	3403.045410	40.623394
304.076416	1102.953857	6701.927734	3372.740723	40.539337
304.449921	1105.104614	6637.296387	3348.221191	40.546619
304.823395	1106.051025	6586.451172	3321.228760	40.419998
305.196838	1106.567261	6530.292480	3292.773438	40.308201
305.570251	1106.481201	6469.038574	3266.275879	40.275459
305.943604	1106.223145	6403.201660	3240.422852	40.290890
306.316986	1110.094604	6367.820801	3220.377441	40.136795
306.690277	1108.868652	6345.474609	3208.031982	40.086334
307.063507	1108.373901	6343.840332	3204.246338	40.032204
307.436768	1109.449341	6365.262207	3213.280273	40.028652
307.809937	1110.653809	6409.956055	3227.518066	39.946095
308.183136	1111.298950	6479.620117	3251.004883	39.858009
308.556244	1108.223511	6569.566895	3278.234375	39.734013
308.929321	1107.664185	6653.534180	3310.302979	39.716736
309.302399	1105.943481	6743.825195	3349.941650	39.802147
309.675446	1106.309082	6841.664551	3385.817383	39.744846
310.048401	1106.911377	6937.526367	3419.025635	39.654720
310.421356	1103.190552	7031.215820	3456.277588	39.694279
310.794281	1103.706543	7135.378418	3491.765625	39.591991
311.167145	1103.620728	7231.713867	3529.641357	39.588505
311.539978	1103.448608	7308.023926	3550.913086	39.446121
311.912781	1100.932129	7343.147949	3560.204590	39.397427
312.285553	1101.641846	7331.144043	3549.880371	39.300709
312.658295	1102.480591	7282.859375	3528.760010	39.257774
313.031006	1104.846558	7225.992188	3506.111816	39.229015
313.403656	1103.190308	7173.060547	3480.130371	39.159649
313.776276	1101.985962	7139.852051	3461.138428	39.072617
314.148865	1102.394653	7134.390137	3458.342285	39.057518
314.521454	1101.168701	7136.002930	3459.331299	39.075848
314.893982	1099.577148	7119.096680	3453.889893	39.111305
315.266449	1100.523438	7070.789551	3434.038330	39.085609
315.638885	1099.770752	7000.157715	3409.411865	39.143894
316.011322	1101.728027	6926.600098	3379.838135	39.110046
316.383667	1100.394409	6864.806641	3357.512695	39.156086
316.756042	1104.696045	6818.005859	3339.295898	39.112179
317.128326	1104.265869	6778.517578	3318.045410	39.014473
317.500610	1107.233887	6732.468750	3295.827393	38.906704
317.872833	1106.760864	6660.287598	3269.695313	38.947044
318.245087	1106.717773	6574.492188	3232.120850	38.871449
318.617218	1108.180298	6490.954590	3193.879639	38.747662
