Jaz Data File
++++++++++++++++++++++++++++++++++++
Date: Mon Apr 22 19:27:39 2019
User: jaz
Dark Spectrum Present: Yes
Reference Spectrum Present: Yes
Processed Spectrum Present: Yes
Spectrometers: JAZA2928
Integration Time (usec): 40000 (JAZA2928)
Spectra Averaged: 10 (JAZA2928)
Boxcar Smoothing: 5 (JAZA2928)
Correct for Electrical Dark: No (JAZA2928)
Strobe/Lamp Enabled: Yes (JAZA2928)
Correct for Detector Non-linearity: No (JAZA2928)
Correct for Stray Light: No (JAZA2928)
Number of Pixels in Processed Spectrum: 2048
>>>>>Begin Processed Spectral Data<<<<<
W	D	R	S	P
190.104553	0.000000	0.000000	0.000000	0.000000
190.488098	0.000000	0.000000	0.000000	0.000000
190.871613	1077.423828	1084.994751	1065.357788	-159.373444
191.255096	1080.499390	1079.079956	1069.853027	750.043030
191.638535	0.000000	0.000000	0.000000	0.000000
192.021942	903.294739	908.865295	890.992188	-220.849579
192.405334	1004.317993	1010.039124	992.768188	-201.879761
192.788696	1107.599609	1112.288330	1090.715820	-360.093719
193.172012	1111.471069	1116.052246	1095.813232	-341.786346
193.555313	1116.138306	1118.654663	1102.179565	-554.720093
193.938568	1122.375488	1122.956299	1106.201660	-2784.699463
194.321793	1125.386597	1126.505127	1112.718628	-1132.554810
194.704987	1126.655640	1129.473267	1116.676025	-354.185089
195.088150	1127.429810	1129.387207	1118.375122	-462.588074
195.471298	1126.505249	1131.710083	1122.375610	-79.342369
195.854401	1127.494629	1132.054199	1124.096191	-74.534164
196.237457	1129.064575	1128.957031	1123.451050	5219.750488
196.620499	1129.043091	1130.441040	1122.870239	-441.564789
197.003494	1127.171875	1130.140137	1126.075073	-36.950977
197.386475	1126.999878	1131.129395	1125.580200	-34.378788
197.769424	1126.419067	1132.441406	1123.838135	-42.855984
198.152344	1123.365112	1134.527832	1121.880859	-13.296517
198.535217	1120.934570	1135.947266	1117.858887	-20.487217
198.918076	1121.149658	1138.098022	1117.643677	-20.686253
199.300903	1121.838013	1139.668091	1117.815796	-22.558605
199.683670	1123.838257	1144.421387	1116.955444	-33.439095
200.066422	1123.730591	1145.023560	1116.396362	-34.444366
200.449142	1121.967041	1147.884277	1117.966431	-15.436099
200.831848	1122.719849	1149.174683	1119.988159	-10.325861
201.214508	1123.537109	1149.002686	1118.547241	-19.594563
201.597137	1122.891846	1150.120972	1117.772949	-18.799341
201.979736	1122.612183	1152.874146	1117.901855	-15.565174
202.362274	1122.633789	1149.088623	1118.633179	-15.122417
202.744827	1121.257202	1147.625977	1116.632935	-17.536907
203.127319	1119.171021	1146.055908	1115.041382	-15.360446
203.509796	1116.525513	1142.786621	1114.116455	-9.173480
203.892227	1113.406860	1136.872070	1109.879395	-15.032747
204.274643	1110.567749	1137.151489	1106.524292	-15.210264
204.657013	1110.804321	1134.850342	1104.050781	-28.085896
205.039352	1108.223389	1132.441406	1101.469849	-27.886429
205.421661	1104.932617	1135.796753	1103.018433	-6.201971
205.803940	1103.964722	1135.516968	1103.061401	-2.862935
206.186188	1103.771118	1133.344727	1098.114502	-19.127243
206.568405	1101.921387	1134.248169	1095.877808	-18.695271
206.950592	1103.297974	1136.119263	1097.297241	-18.283049
207.332748	1101.340698	1133.882446	1096.178833	-15.862287
207.714859	1099.964233	1136.269775	1096.630493	-9.182455
208.096939	1099.598511	1137.732422	1098.415649	-3.101862
208.478989	1098.695190	1137.280762	1099.964355	3.289222
208.861008	1098.931763	1138.291626	1101.856934	7.431862
209.243011	1099.318848	1140.765137	1100.824463	3.632690
209.624969	1098.652222	1139.410034	1100.136230	3.641041
210.006897	1098.480103	1140.377808	1100.609497	5.082366
210.388794	1097.469238	1141.345703	1102.674316	11.863029
210.770645	1097.426270	1141.603882	1104.653076	16.358526
211.152481	1097.146606	1140.549927	1104.954224	17.988525
211.534286	1097.404785	1143.152344	1105.986572	18.759007
211.916061	1097.490723	1141.238159	1103.169067	12.979835
212.297791	1097.985474	1142.119995	1102.975464	11.306320
212.679489	1097.125122	1143.195435	1104.437988	15.873273
213.061157	1093.662354	1142.313599	1105.083252	23.475039
213.442795	1093.812988	1142.786743	1106.868408	26.657993
213.824402	1094.071167	1142.829712	1107.212524	26.951906
214.205963	1094.823730	1141.496216	1105.728516	23.364483
214.587524	1093.705444	1141.195190	1107.578125	29.211950
214.969025	1094.952881	1142.937378	1106.051147	23.128859
215.350510	1093.554932	1145.948486	1105.578003	22.947615
215.731949	1092.823730	1144.572021	1105.405762	24.313908
216.113358	1092.221558	1147.841309	1107.406128	27.300680
216.494736	1093.361328	1147.239014	1107.793091	26.786160
216.876083	1093.124878	1145.324707	1108.094238	28.677029
217.257401	1094.823975	1146.765747	1106.782349	23.022654
217.638702	1094.910034	1149.389771	1105.556274	19.541651
218.019943	1095.791748	1151.841553	1105.857422	17.958447
218.401169	1094.006592	1152.142700	1107.233887	22.752289
218.782349	1094.372070	1154.788208	1108.180176	22.854996
219.163498	1094.436646	1158.272583	1110.696777	25.471752
219.544632	1098.286621	1158.659668	1111.600098	22.052021
219.925705	1102.416138	1162.423584	1111.944214	15.878157
220.306778	1103.104370	1163.929199	1114.417725	18.599895
220.687805	1101.082520	1168.661011	1112.847656	17.409588
221.068802	1101.770996	1176.640503	1112.309937	14.076412
221.449738	1101.985840	1182.598145	1112.869141	13.500793
221.830673	1099.340454	1186.620117	1114.417603	17.274527
222.211563	1098.394043	1191.932617	1114.761841	17.498447
222.592438	1098.759766	1200.084106	1115.729614	16.748047
222.973267	1099.060913	1206.730225	1117.471802	17.099476
223.354065	1097.727417	1211.655518	1120.547363	20.030130
223.734848	1093.791382	1217.828369	1121.967041	22.715530
224.115555	1090.436157	1228.302734	1124.590942	24.773796
224.496262	1092.694458	1238.497559	1127.516113	23.882658
224.876923	1092.178223	1246.498535	1133.409180	26.717777
225.257568	1091.016846	1255.639526	1137.044067	27.959223
225.638168	1088.113281	1265.554688	1140.894043	29.745459
226.018723	1090.479248	1277.147583	1147.389526	30.487377
226.399277	1092.328735	1291.923462	1152.529785	30.161644
226.779785	1094.759277	1309.861206	1162.746216	31.606848
227.160263	1093.726929	1333.046875	1169.650391	31.724670
227.540695	1093.103149	1363.351685	1178.382690	31.555967
227.921112	1091.984741	1408.217529	1193.201660	32.007092
228.301483	1092.501099	1466.525879	1213.978394	32.478409
228.681824	1092.006348	1543.460083	1238.454590	32.439259
229.062134	1095.339966	1631.212891	1267.619385	32.149303
229.442413	1095.404419	1713.438232	1297.257446	32.660515
229.822647	1099.469604	1782.349976	1320.550781	32.374802
230.202881	1100.846069	1832.011841	1336.015015	32.163559
230.583054	1100.674072	1871.651245	1348.704834	32.170959
230.963196	1098.372681	1904.106934	1356.383179	32.021786
231.343292	1097.576782	1930.819946	1362.964722	31.849998
231.723404	1097.146606	1946.348755	1367.524292	31.839025
232.103439	1098.372681	1940.670654	1366.147827	31.791023
232.483459	1098.630737	1913.054321	1354.942139	31.471510
232.863434	1096.802612	1867.650757	1337.477539	31.222094
233.243393	1091.662109	1814.934814	1317.088013	31.167484
233.623306	1092.909668	1767.294434	1297.709106	30.368338
234.003174	1092.242920	1737.763672	1288.675903	30.430159
234.383041	1089.382324	1724.880371	1280.438354	30.063984
234.762848	1090.930786	1717.675293	1278.932739	29.996586
235.142639	1091.855591	1711.932495	1275.749512	29.656631
235.522385	1094.135498	1708.491089	1276.072144	29.614225
235.902115	1095.834839	1710.212036	1276.265625	29.368080
236.281799	1095.641113	1716.384766	1278.416504	29.444584
236.661438	1096.178833	1729.009888	1285.191528	29.867798
237.041077	1095.576660	1740.946899	1288.675781	29.920673
237.420654	1098.458618	1747.033569	1291.988159	29.839195
237.800217	1097.963989	1755.550659	1293.020508	29.662481
238.179733	1098.351074	1761.530029	1290.869629	29.029654
238.559219	1100.372925	1769.509644	1292.590332	28.726179
238.938690	1098.265137	1782.220703	1294.827148	28.739002
239.318100	1096.630493	1800.158325	1297.171509	28.505058
239.697510	1097.017578	1821.687988	1302.096802	28.299654
240.076859	1097.168091	1847.260986	1306.269287	27.876707
240.456177	1098.178955	1891.976440	1314.980103	27.311897
240.835464	1096.651855	1948.263184	1325.368530	26.856932
241.214722	1097.275757	2024.745728	1345.026855	26.712574
241.593948	1097.963989	2132.092285	1371.847412	26.484472
241.973129	1097.856567	2259.333740	1407.701294	26.676781
242.352295	1097.297363	2406.750000	1448.781616	26.842075
242.731415	1097.856323	2553.327148	1487.517578	26.772179
243.110519	1095.877686	2674.417480	1521.629395	26.971237
243.489578	1095.877686	2769.440186	1547.460571	26.983330
243.868607	1096.049805	2835.943115	1565.742310	26.995478
244.247604	1097.684448	2886.035156	1582.497192	27.109489
244.626541	1098.910278	2917.953125	1592.605957	27.140409
245.005493	1099.792114	2945.719727	1602.757813	27.247314
245.384369	1100.114868	2970.948975	1609.791016	27.243258
245.763229	1100.609497	2998.909180	1619.512451	27.335144
246.142059	1102.760254	3052.937500	1634.245605	27.253181
246.520859	1102.351685	3154.261475	1658.592651	27.108454
246.899612	1100.889038	3308.366943	1697.436279	27.023926
247.278336	1101.942993	3494.518799	1742.366455	26.767115
247.657043	1102.394653	3664.540039	1786.672974	26.707239
248.035690	1101.405273	3803.309570	1824.226196	26.752277
248.414322	1100.867676	3921.002197	1851.562500	26.619114
248.792908	1099.297607	4008.367432	1874.404175	26.644482
249.171478	1099.835205	4061.642822	1887.545654	26.595598
249.550003	1101.104126	4068.827148	1892.148438	26.654922
249.928482	1100.588013	4035.661621	1881.824585	26.617273
250.306961	1099.620117	3942.724854	1854.509277	26.551579
250.685364	1099.362061	3780.747803	1812.353516	26.590410
251.063782	1100.652466	3577.324951	1759.207031	26.590298
251.442123	1101.168701	3379.536865	1706.146606	26.553123
251.820450	1102.416138	3241.261963	1671.884399	26.625029
252.198761	1102.201050	3168.177490	1648.784790	26.456434
252.576996	1101.276245	3111.740479	1634.288574	26.511904
252.955246	1101.921509	3063.153809	1621.577271	26.496389
253.333420	1101.039673	3017.792969	1608.672363	26.483986
253.711578	1100.437500	2990.306152	1596.606323	26.254143
254.089706	1100.308472	2965.872803	1589.444214	26.219183
254.467804	1098.716675	2948.537354	1585.164185	26.297009
254.845871	1099.856567	2933.202148	1581.464844	26.269367
255.223877	1098.996338	2907.005371	1574.625122	26.306770
255.601898	1100.480347	2870.334229	1566.538208	26.333126
255.979828	1098.265137	2818.026367	1550.278198	26.283478
256.357727	1098.630737	2763.826172	1536.427002	26.290983
256.735657	1098.480225	2741.457764	1528.469116	26.171318
257.113525	1098.071411	2758.492432	1529.006714	25.953375
257.491333	1098.480347	2812.197754	1543.460083	25.965759
257.869110	1097.835083	2891.799072	1565.548828	26.071524
258.246887	1097.684448	3007.146729	1592.369263	25.907022
258.624573	1097.232788	3174.092285	1633.729248	25.832104
259.002289	1097.275757	3402.142090	1690.962158	25.757956
259.379944	1098.566284	3704.265625	1768.520264	25.711102
259.757538	1098.415649	4068.052490	1859.606689	25.632463
260.135162	1099.318970	4428.032715	1949.123413	25.529512
260.512665	1100.760010	4715.939453	2023.153931	25.514471
260.890228	1099.792114	4904.715332	2070.342773	25.507759
261.267700	1101.147095	5016.622070	2100.711914	25.528570
261.645142	1101.942871	5083.039063	2116.219238	25.477314
262.022552	1103.211914	5120.677734	2123.962158	25.407814
262.399994	1102.717285	5125.904297	2123.962158	25.383978
262.777313	1103.857178	5080.715820	2111.874756	25.347080
263.154602	1104.911011	4961.216309	2081.698730	25.329628
263.531921	1102.824707	4760.159180	2026.573730	25.257439
263.909149	1102.459106	4480.791504	1953.338745	25.186378
264.286377	1101.491333	4192.583984	1881.545044	25.235533
264.663574	1099.878174	3972.277100	1819.150269	25.040815
265.040710	1101.921509	3845.767090	1786.931152	24.965313
265.417816	1099.168457	3795.782227	1772.692871	24.976673
265.794891	1099.340576	3797.803955	1771.531250	24.910128
266.171936	1099.104004	3841.508057	1777.510498	24.737656
266.548950	1099.921265	3899.708740	1789.038940	24.613213
266.925934	1101.383789	3954.425049	1801.728638	24.547308
267.302887	1100.329834	4020.368896	1812.267578	24.381104
267.679810	1102.308594	4091.776367	1831.474121	24.391150
268.056671	1102.652710	4176.216797	1849.519531	24.299700
268.433502	1101.749512	4266.658203	1866.812134	24.173292
268.810333	1101.684814	4350.517578	1889.976074	24.263830
269.187073	1099.039429	4426.677734	1907.225464	24.287077
269.563843	1101.362305	4488.276855	1919.055054	24.142704
269.940521	1100.588013	4541.895996	1926.453857	23.998602
270.317200	1099.899780	4605.710449	1942.778442	24.042334
270.693848	1099.146973	4713.035645	1969.383667	24.080341
271.070435	1097.705933	4884.304199	2008.076660	24.041916
271.447021	1095.856323	5082.371582	2052.985596	24.009172
271.823547	1093.920532	5251.705078	2086.817627	23.880436
272.200043	1092.931152	5382.043457	2116.133057	23.855797
272.576538	1096.501465	5496.100098	2143.405518	23.795444
272.952972	1096.630493	5606.415527	2166.762939	23.729122
273.329346	1099.641602	5698.835449	2185.453613	23.608746
273.705688	1097.490723	5766.155762	2197.927979	23.570705
274.082062	1094.221558	5809.837891	2205.972168	23.575935
274.458344	1094.049438	5806.568848	2202.918213	23.530273
274.834595	1093.060059	5748.755371	2189.432617	23.549061
275.210846	1093.748413	5652.141113	2163.300537	23.463362
275.587006	1095.361572	5538.041016	2136.544434	23.435921
275.963165	1096.135864	5473.688965	2122.026367	23.435249
276.339294	1095.920898	5444.265625	2116.219482	23.464069
276.715393	1094.329224	5440.265137	2111.616699	23.407787
277.091461	1093.942017	5437.361816	2110.089600	23.395103
277.467438	1092.931152	5444.867676	2108.734375	23.341408
277.843445	1094.372192	5460.289551	2114.734863	23.371094
278.219452	1097.361816	5481.604004	2120.628174	23.339640
278.595337	1097.275757	5513.521484	2127.338867	23.324408
278.971191	1097.318726	5547.805664	2131.274658	23.232424
279.347046	1096.716553	5572.969727	2137.770508	23.257263
279.722870	1095.727051	5607.189453	2142.975098	23.213051
280.098663	1096.953125	5631.234863	2147.040039	23.158836
280.474396	1098.222168	5683.004883	2156.073730	23.073101
280.850098	1099.727539	5749.679688	2169.774414	23.011997
281.225800	1099.770630	5852.595703	2189.647705	22.931141
281.601440	1099.125488	5983.816895	2221.909912	22.985781
281.977051	1098.996338	6153.665527	2256.817383	22.905972
282.352600	1100.265503	6314.695801	2291.789307	22.850508
282.728149	1102.996948	6448.454590	2320.502441	22.776451
283.103668	1104.007935	6547.198242	2343.322510	22.768166
283.479156	1102.588379	6633.079590	2357.905029	22.698105
283.854553	1102.502319	6720.380859	2375.950195	22.667772
284.229950	1098.480347	6819.877930	2401.501709	22.774530
284.605347	1096.501587	6916.750000	2422.407471	22.780914
284.980652	1094.888428	7007.728516	2442.560547	22.792299
285.355988	1092.500977	7095.331055	2460.111084	22.782755
285.731201	1094.243042	7173.210938	2471.166260	22.650608
286.106445	1094.888428	7234.551758	2481.490479	22.584335
286.481659	1094.802368	7309.464355	2494.889893	22.528780
286.856781	1091.490112	7380.248047	2506.805176	22.505480
287.231934	1093.942017	7436.878418	2517.365479	22.441080
287.607025	1097.254272	7468.667480	2524.119141	22.394794
287.982056	1100.114868	7471.699707	2524.312744	22.352333
288.357086	1103.577637	7457.009766	2513.214600	22.187016
288.732086	1104.201294	7427.049805	2503.966064	22.138199
289.107025	1104.373413	7399.476563	2493.965088	22.074169
289.481934	1106.137085	7369.988770	2487.512695	22.053135
289.856842	1104.395020	7367.579590	2485.017334	22.043455
290.231659	1103.276611	7383.409668	2487.060791	22.034313
290.606506	1102.717407	7399.583984	2489.598633	22.024942
290.981262	1104.029419	7420.532715	2494.674561	22.016060
291.355988	1103.341064	7460.408203	2500.998047	21.985876
291.730713	1101.276245	7499.531250	2509.838135	22.014782
292.105377	1100.996582	7523.040527	2516.161133	22.036045
292.480011	1102.115112	7531.126953	2524.312744	22.121559
292.854614	1101.340698	7544.418945	2530.270508	22.177752
293.229187	1102.093628	7573.949707	2544.078857	22.280861
293.603729	1104.115356	7617.632324	2563.135010	22.399874
293.978241	1103.771240	7652.840332	2583.266357	22.590921
294.352692	1101.964478	7681.683105	2602.559082	22.806364
294.727081	1101.061035	7708.525391	2623.292725	23.038061
295.101501	1098.609253	7761.865234	2646.650635	23.232508
295.475830	1095.512085	7848.133301	2678.891113	23.448362
295.850189	1095.038940	7991.893555	2726.789307	23.659342
296.224457	1091.683716	8203.381836	2789.937012	23.879715
296.598694	1089.403809	8463.350586	2867.495117	24.113155
296.972931	1089.016602	8729.597656	2947.548340	24.324482
297.347107	1088.586426	8935.946289	3013.792969	24.533175
297.721283	1087.898071	9061.037109	3055.196045	24.674070
298.095367	1089.769409	9098.051758	3077.413818	24.819860
298.469452	1092.737427	9080.931641	3086.339600	24.956856
298.843475	1092.199707	9037.636719	3083.973389	25.068146
299.217529	1094.587158	8972.337891	3081.091309	25.216640
299.591492	1096.436890	8892.672852	3068.745850	25.298222
299.965424	1098.135864	8774.442383	3047.560791	25.395350
300.339325	1102.179565	8594.958008	3010.200928	25.464806
300.713196	1103.513062	8374.263672	2959.743164	25.530104
301.087036	1105.448730	8138.126465	2907.306641	25.621222
301.460815	1104.975586	7937.585938	2858.806152	25.668530
301.834564	1103.771118	7774.533203	2820.435791	25.734161
302.208282	1103.125854	7649.119141	2787.592773	25.732794
302.582001	1103.297974	7531.814453	2759.632080	25.765417
302.955658	1103.297974	7423.306641	2733.091064	25.787830
303.329254	1100.889038	7332.241699	2712.292725	25.859613
303.702820	1101.276245	7248.747070	2693.925293	25.907387
304.076416	1100.910645	7176.007813	2676.202637	25.930317
304.449921	1099.491089	7122.452637	2664.201172	25.979082
304.823395	1099.749146	7062.165527	2648.758301	25.979553
305.196838	1099.426636	7003.878418	2631.702393	25.951195
305.570251	1097.921021	6932.858887	2615.119873	26.001970
305.943604	1096.479980	6870.485840	2598.450928	26.012632
306.316986	1096.350952	6825.146973	2588.019531	26.038082
306.690277	1094.759399	6800.218750	2574.792480	25.940647
307.063507	1094.200073	6800.971680	2575.781494	25.961815
307.436768	1095.038940	6830.372070	2579.158447	25.876780
307.809937	1092.328979	6880.078125	2590.944824	25.892897
308.183136	1093.081665	6951.484375	2610.043945	25.893785
308.556244	1091.640747	7039.259277	2628.863525	25.846022
308.929321	1092.802002	7145.702637	2652.177979	25.762459
309.302399	1091.963379	7244.488770	2676.116699	25.748018
309.675446	1093.597778	7353.104492	2703.775879	25.723721
310.048401	1095.167969	7449.568359	2726.101318	25.666204
310.421356	1093.662354	7553.624512	2748.641602	25.619024
310.794281	1094.049438	7670.606445	2780.624023	25.645250
311.167145	1096.264771	7784.168945	2808.820801	25.606766
311.539978	1100.437378	7864.242676	2826.737305	25.522615
311.912781	1102.588135	7910.098145	2836.695557	25.473448
312.285553	1101.147095	7899.667480	2830.264648	25.433733
312.658295	1102.308472	7851.940430	2819.252441	25.437593
313.031006	1101.254639	7786.728027	2806.519775	25.507021
313.403656	1101.792358	7728.354980	2789.076660	25.462437
313.776276	1101.663208	7684.435547	2773.289795	25.393959
314.148865	1102.029053	7688.415527	2772.881104	25.368265
314.521454	1105.040161	7694.351563	2777.656006	25.383772
314.893982	1103.147583	7677.596680	2769.999023	25.353477
315.266449	1101.018311	7620.212891	2751.997070	25.324890
315.638885	1095.899292	7539.772949	2730.381348	25.364901
316.011322	1094.544189	7452.429199	2705.711914	25.341253
316.383667	1094.759277	7385.065430	2688.053711	25.329363
316.756042	1094.458130	7327.316895	2671.686035	25.305048
317.128326	1094.049561	7277.848145	2653.963379	25.225819
317.500610	1094.329102	7220.959473	2641.316650	25.250219
317.872833	1094.157104	7145.443848	2623.873535	25.279194
318.245087	1094.608643	7047.453613	2596.515381	25.230068
