Jaz Data File
++++++++++++++++++++++++++++++++++++
Date: Mon Apr 22 19:26:28 2019
User: jaz
Dark Spectrum Present: Yes
Reference Spectrum Present: Yes
Processed Spectrum Present: Yes
Spectrometers: JAZA2928
Integration Time (usec): 40000 (JAZA2928)
Spectra Averaged: 10 (JAZA2928)
Boxcar Smoothing: 5 (JAZA2928)
Correct for Electrical Dark: No (JAZA2928)
Strobe/Lamp Enabled: Yes (JAZA2928)
Correct for Detector Non-linearity: No (JAZA2928)
Correct for Stray Light: No (JAZA2928)
Number of Pixels in Processed Spectrum: 2048
>>>>>Begin Processed Spectral Data<<<<<
W	D	R	S	P
190.104553	0.000000	0.000000	0.000000	0.000000
190.488098	0.000000	0.000000	0.000000	0.000000
190.871613	1077.423828	1084.994751	1040.279541	-490.617706
191.255096	1080.499390	1079.079956	1039.569702	2883.522461
191.638535	0.000000	0.000000	0.000000	0.000000
192.021942	903.294739	908.865295	896.218567	-127.028091
192.405334	1004.317993	1010.039124	996.639648	-134.210266
192.788696	1107.599609	1112.288330	1097.942505	-205.964600
193.172012	1111.471069	1116.052246	1106.158691	-115.960991
193.555313	1116.138306	1118.654663	1112.761597	-134.190353
193.938568	1122.375488	1122.956299	1119.041870	-573.959656
194.321793	1125.386597	1126.505127	1123.472534	-171.123001
194.704987	1126.655640	1129.473267	1123.192871	-122.896629
195.088150	1127.429810	1129.387207	1124.053223	-172.503891
195.471298	1126.505249	1131.710083	1122.160645	-83.472488
195.854401	1127.494629	1132.054199	1121.838013	-124.060287
196.237457	1129.064575	1128.957031	1120.611816	7859.818359
196.620499	1129.043091	1130.441040	1120.762451	-592.341919
197.003494	1127.171875	1130.140137	1122.095825	-171.010864
197.386475	1126.999878	1131.129395	1119.171021	-189.582901
197.769424	1126.419067	1132.441406	1119.063354	-122.140465
198.152344	1123.365112	1134.527832	1117.687012	-50.866642
198.535217	1120.934570	1135.947266	1116.245972	-31.230892
198.918076	1121.149658	1138.098022	1117.944946	-18.908680
199.300903	1121.838013	1139.668091	1117.471802	-24.487896
199.683670	1123.838257	1144.421387	1117.192139	-32.289154
200.066422	1123.730591	1145.023560	1117.772827	-27.979958
200.449142	1121.967041	1147.884277	1118.138550	-14.771989
200.831848	1122.719849	1149.174683	1116.675903	-22.846279
201.214508	1123.537109	1149.002686	1114.847778	-34.121872
201.597137	1122.891846	1150.120972	1117.084595	-21.327351
201.979736	1122.612183	1152.874146	1118.052490	-15.067405
202.362274	1122.633789	1149.088623	1118.783691	-14.553475
202.744827	1121.257202	1147.625977	1118.633301	-9.950790
203.127319	1119.171021	1146.055908	1118.762329	-1.520153
203.509796	1116.525513	1142.786621	1116.331909	-0.737225
203.892227	1113.406860	1136.872070	1117.321167	16.681320
204.274643	1110.567749	1137.151489	1116.869629	23.705769
204.657013	1110.804321	1134.850342	1115.105957	17.889179
205.039352	1108.223389	1132.441406	1117.729980	39.254211
205.421661	1104.932617	1135.796753	1117.342773	40.208988
205.803940	1103.964722	1135.516968	1117.858887	44.035423
206.186188	1103.771118	1133.344727	1116.826660	44.145920
206.568405	1101.921387	1134.248169	1113.148682	34.730629
206.950592	1103.297974	1136.119263	1111.772217	25.819349
207.332748	1101.340698	1133.882446	1109.169800	24.058640
207.714859	1099.964233	1136.269775	1109.255737	25.592522
208.096939	1099.598511	1137.732422	1108.051270	22.165989
208.478989	1098.695190	1137.280762	1107.126465	21.850847
208.861008	1098.931763	1138.291626	1107.449097	21.639643
209.243011	1099.318848	1140.765137	1105.384277	14.634434
209.624969	1098.652222	1139.410034	1106.416748	19.050400
210.006897	1098.480103	1140.377808	1106.179932	18.377687
210.388794	1097.469238	1141.345703	1107.061890	21.862864
210.770645	1097.426270	1141.603882	1109.126587	26.484720
211.152481	1097.146606	1140.549927	1112.266846	34.836597
211.534286	1097.404785	1143.152344	1111.750488	31.358402
211.916061	1097.490723	1141.238159	1112.890503	35.201561
212.297791	1097.985474	1142.119995	1114.223999	36.793251
212.679489	1097.125122	1143.195435	1114.826294	38.422077
213.061157	1093.662354	1142.313599	1115.729614	45.358059
213.442795	1093.812988	1142.786743	1117.858887	49.099560
213.824402	1094.071167	1142.829712	1118.310669	49.713341
214.205963	1094.823730	1141.496216	1118.568726	50.875790
214.587524	1093.705444	1141.195190	1120.375366	56.159328
214.969025	1094.952881	1142.937378	1120.740967	53.742538
215.350510	1093.554932	1145.948486	1119.321411	49.178719
215.731949	1092.823730	1144.572021	1121.429199	55.278095
216.113358	1092.221558	1147.841309	1123.773682	56.728271
216.494736	1093.361328	1147.239014	1123.666138	56.247421
216.876083	1093.124878	1145.324707	1125.128784	61.310368
217.257401	1094.823975	1146.765747	1126.784912	61.532242
217.638702	1094.910034	1149.389771	1126.075073	57.204826
218.019943	1095.791748	1151.841553	1124.698486	51.573307
218.401169	1094.006592	1152.142700	1122.483276	48.982784
218.782349	1094.372070	1154.788208	1121.622925	45.105259
219.163498	1094.436646	1158.272583	1122.633789	44.171268
219.544632	1098.286621	1158.659668	1122.483276	40.078571
219.925705	1102.416138	1162.423584	1122.762817	33.906925
220.306778	1103.104370	1163.929199	1123.558716	33.628284
220.687805	1101.082520	1168.661011	1127.623657	39.274536
221.068802	1101.770996	1176.640503	1129.623901	37.201935
221.449738	1101.985840	1182.598145	1129.344238	33.938240
221.830673	1099.340454	1186.620117	1131.301392	36.618996
222.211563	1098.394043	1191.932617	1134.377075	38.468655
222.592438	1098.759766	1200.084106	1137.130127	37.868847
222.973267	1099.060913	1206.730225	1138.463623	36.596046
223.354065	1097.727417	1211.655518	1141.990967	38.852180
223.734848	1093.791382	1217.828369	1144.744019	41.078583
224.115555	1090.436157	1228.302734	1147.712036	41.544426
224.496262	1092.694458	1238.497559	1150.486572	39.637096
224.876923	1092.178223	1246.498535	1152.336304	38.982609
225.257568	1091.016846	1255.639526	1155.132324	38.946930
225.638168	1088.113281	1265.554688	1161.283691	41.236378
226.018723	1090.479248	1277.147583	1168.531860	41.813526
226.399277	1092.328735	1291.923462	1175.521973	41.681080
226.779785	1094.759277	1309.861206	1185.372681	42.125797
227.160263	1093.726929	1333.046875	1195.890137	42.688965
227.540695	1093.103149	1363.351685	1207.741089	42.419449
227.921112	1091.984741	1408.217529	1226.388550	42.501541
228.301483	1092.501099	1466.525879	1252.047607	42.656670
228.681824	1092.006348	1543.460083	1283.363281	42.386833
229.062134	1095.339966	1631.212891	1319.260254	41.786079
229.442413	1095.404419	1713.438232	1353.737549	41.799191
229.822647	1099.469604	1782.349976	1378.600952	40.875584
230.202881	1100.846069	1832.011841	1397.398926	40.558910
230.583054	1100.674072	1871.651245	1413.594482	40.587505
230.963196	1098.372681	1904.106934	1427.101440	40.798656
231.343292	1097.576782	1930.819946	1437.231812	40.763016
231.723404	1097.146606	1946.348755	1442.651855	40.685867
232.103439	1098.372681	1940.670654	1438.092163	40.332458
232.483459	1098.630737	1913.054321	1424.369995	39.996296
232.863434	1096.802612	1867.650757	1403.851440	39.832596
233.243393	1091.662109	1814.934814	1380.837769	39.981552
233.623306	1092.909668	1767.294434	1359.953491	39.598141
234.003174	1092.242920	1737.763672	1349.349976	39.829403
234.383041	1089.382324	1724.880371	1343.435425	39.977009
234.762848	1090.930786	1717.675293	1338.466919	39.495541
235.142639	1091.855591	1711.932495	1334.401978	39.115532
235.522385	1094.135498	1708.491089	1331.842529	38.692093
235.902115	1095.834839	1710.212036	1329.584106	38.046539
236.281799	1095.641113	1716.384766	1334.423340	38.467125
236.661438	1096.178833	1729.009888	1341.284424	38.731598
237.041077	1095.576660	1740.946899	1345.650513	38.748898
237.420654	1098.458618	1747.033569	1345.328003	38.063354
237.800217	1097.963989	1755.550659	1347.952026	38.015984
238.179733	1098.351074	1761.530029	1348.102539	37.659740
238.559219	1100.372925	1769.509644	1348.210083	37.038345
238.938690	1098.265137	1782.220703	1352.490112	37.169807
239.318100	1096.630493	1800.158325	1354.038818	36.588223
239.697510	1097.017578	1821.687988	1359.544800	36.227119
240.076859	1097.168091	1847.260986	1370.771973	36.475998
240.456177	1098.178955	1891.976440	1383.978027	36.004028
240.835464	1096.651855	1948.263184	1402.216797	35.880798
241.214722	1097.275757	2024.745728	1430.091309	35.884239
241.593948	1097.963989	2132.092285	1469.816528	35.958065
241.973129	1097.856567	2259.333740	1515.478149	35.956074
242.352295	1097.297363	2406.750000	1566.946899	35.866096
242.731415	1097.856323	2553.327148	1618.265137	35.755360
243.110519	1095.877686	2674.417480	1660.764893	35.785427
243.489578	1095.877686	2769.440186	1697.414795	35.943512
243.868607	1096.049805	2835.943115	1720.922974	35.914452
244.247604	1097.684448	2886.035156	1737.032349	35.750702
244.626541	1098.910278	2917.953125	1748.517700	35.711498
245.005493	1099.792114	2945.719727	1755.464844	35.519958
245.384369	1100.114868	2970.948975	1762.777466	35.420704
245.763229	1100.609497	2998.909180	1770.606567	35.294590
246.142059	1102.760254	3052.937500	1786.780518	35.074776
246.520859	1102.351685	3154.261475	1822.053589	35.074738
246.899612	1100.889038	3308.366943	1876.942139	35.155643
247.278336	1101.942993	3494.518799	1940.692139	35.056328
247.657043	1102.394653	3664.540039	1997.666870	34.942287
248.035690	1101.405273	3803.309570	2045.543823	34.943447
248.414322	1100.867676	3921.002197	2083.828125	34.855091
248.792908	1099.297607	4008.367432	2113.294189	34.856384
249.171478	1099.835205	4061.642822	2133.662109	34.905270
249.550003	1101.104126	4068.827148	2136.544189	34.890049
249.928482	1100.588013	4035.661621	2125.231201	34.910305
250.306961	1099.620117	3942.724854	2090.624756	34.856422
250.685364	1099.362061	3780.747803	2034.918457	34.890781
251.063782	1100.652466	3577.324951	1960.070435	34.700512
251.442123	1101.168701	3379.536865	1890.212769	34.631981
251.820450	1102.416138	3241.261963	1841.970215	34.577251
252.198761	1102.201050	3168.177490	1816.612183	34.579826
252.576996	1101.276245	3111.740479	1799.061768	34.707680
252.955246	1101.921509	3063.153809	1781.425049	34.646763
253.333420	1101.039673	3017.792969	1765.853394	34.684364
253.711578	1100.437500	2990.306152	1756.991821	34.740738
254.089706	1100.308472	2965.872803	1748.194946	34.728714
254.467804	1098.716675	2948.537354	1744.280518	34.898727
254.845871	1099.856567	2933.202148	1738.279785	34.822853
255.223877	1098.996338	2907.005371	1730.708984	34.939686
255.601898	1100.480347	2870.334229	1718.083862	34.895733
255.979828	1098.265137	2818.026367	1701.673340	35.086742
256.357727	1098.630737	2763.826172	1683.154785	35.102428
256.735657	1098.480225	2741.457764	1672.142578	34.916019
257.113525	1098.071411	2758.492432	1676.766724	34.852325
257.491333	1098.480347	2812.197754	1692.252686	34.648205
257.869110	1097.835083	2891.799072	1719.395996	34.647346
258.246887	1097.684448	3007.146729	1756.819946	34.519428
258.624573	1097.232788	3174.092285	1808.761719	34.259850
259.002289	1097.275757	3402.142090	1883.093628	34.093861
259.379944	1098.566284	3704.265625	1985.471924	34.037148
259.757538	1098.415649	4068.052490	2102.604736	33.815216
260.135162	1099.318970	4428.032715	2219.974121	33.666309
260.512665	1100.760010	4715.939453	2314.910400	33.584789
260.890228	1099.792114	4904.715332	2377.606445	33.583183
261.267700	1101.147095	5016.622070	2416.299561	33.588581
261.645142	1101.942871	5083.039063	2439.054932	33.586529
262.022552	1103.211914	5120.677734	2447.507813	33.461288
262.399994	1102.717285	5125.904297	2447.851807	33.434551
262.777313	1103.857178	5080.715820	2431.591553	33.386513
263.154602	1104.911011	4961.216309	2387.328125	33.255074
263.531921	1102.824707	4760.159180	2310.308350	33.015400
263.909149	1102.459106	4480.791504	2215.758789	32.954117
264.286377	1101.491333	4192.583984	2116.176270	32.826092
264.663574	1099.878174	3972.277100	2037.585815	32.645454
265.040710	1101.921509	3845.767090	1992.182495	32.445740
265.417816	1099.168457	3795.782227	1968.910889	32.253132
265.794891	1099.340576	3797.803955	1967.082520	32.156891
266.171936	1099.104004	3841.508057	1973.663696	31.890257
266.548950	1099.921265	3899.708740	1988.955933	31.753647
266.925934	1101.383789	3954.425049	2003.689331	31.626095
267.302887	1100.329834	4020.368896	2023.304565	31.608301
267.679810	1102.308594	4091.776367	2049.286377	31.677135
268.056671	1102.652710	4176.216797	2075.934814	31.666239
268.433502	1101.749512	4266.658203	2103.873535	31.663599
268.810333	1101.684814	4350.517578	2129.102539	31.624210
269.187073	1099.039429	4426.677734	2153.126709	31.676739
269.563843	1101.362305	4488.276855	2172.269043	31.618948
269.940521	1100.588013	4541.895996	2185.238525	31.518553
270.317200	1099.899780	4605.710449	2203.864502	31.489573
270.693848	1099.146973	4713.035645	2235.029541	31.431034
271.070435	1097.705933	4884.304199	2286.971680	31.407234
271.447021	1095.856323	5082.371582	2346.957520	31.383329
271.823547	1093.920532	5251.705078	2394.081787	31.270529
272.200043	1092.931152	5382.043457	2431.570313	31.210169
272.576538	1096.501465	5496.100098	2464.671143	31.097603
272.952972	1096.630493	5606.415527	2495.771729	31.024565
273.329346	1099.641602	5698.835449	2521.043457	30.905457
273.705688	1097.490723	5766.155762	2541.175049	30.922852
274.082062	1094.221558	5809.837891	2552.703369	30.928764
274.458344	1094.049438	5806.568848	2551.197754	30.920792
274.834595	1093.060059	5748.755371	2530.033936	30.864861
275.210846	1093.748413	5652.141113	2497.191162	30.788107
275.587006	1095.361572	5538.041016	2460.864258	30.736015
275.963165	1096.135864	5473.688965	2437.054932	30.631702
276.339294	1095.920898	5444.265625	2423.956299	30.541170
276.715393	1094.329224	5440.265137	2418.514648	30.469511
277.091461	1093.942017	5437.361816	2415.697266	30.431210
277.467438	1092.931152	5444.867676	2413.288086	30.339527
277.843445	1094.372192	5460.289551	2412.664551	30.195082
278.219452	1097.361816	5481.604004	2417.331787	30.107141
278.595337	1097.275757	5513.521484	2423.353760	30.027269
278.971191	1097.318726	5547.805664	2430.795654	29.962496
279.347046	1096.716553	5572.969727	2437.785645	29.959637
279.722870	1095.727051	5607.189453	2443.829834	29.881725
280.098663	1096.953125	5631.234863	2452.153320	29.887869
280.474396	1098.222168	5683.004883	2466.348633	29.840595
280.850098	1099.727539	5749.679688	2482.781006	29.743391
281.225800	1099.770630	5852.595703	2511.365234	29.700117
281.601440	1099.125488	5983.816895	2546.380127	29.628374
281.977051	1098.996338	6153.665527	2595.332520	29.603050
282.352600	1100.265503	6314.695801	2640.564209	29.539156
282.728149	1102.996948	6448.454590	2679.063232	29.484217
283.103668	1104.007935	6547.198242	2703.754395	29.389868
283.479156	1102.588379	6633.079590	2721.003906	29.263504
283.854553	1102.502319	6720.380859	2741.458008	29.173925
284.229950	1098.480347	6819.877930	2769.439941	29.205444
284.605347	1096.501587	6916.750000	2797.271240	29.221598
284.980652	1094.888428	7007.728516	2819.273926	29.163406
285.355988	1092.500977	7095.331055	2839.298096	29.099560
285.731201	1094.243042	7173.210938	2859.085449	29.031942
286.106445	1094.888428	7234.551758	2871.495850	28.936562
286.481659	1094.802368	7309.464355	2887.841797	28.851761
286.856781	1091.490112	7380.248047	2903.951416	28.820656
287.231934	1093.942017	7436.878418	2920.856689	28.802349
287.607025	1097.254272	7468.667480	2931.481689	28.788393
287.982056	1100.114868	7471.699707	2931.589111	28.744406
288.357086	1103.577637	7457.009766	2919.867188	28.587534
288.732086	1104.201294	7427.049805	2903.069336	28.450279
289.107025	1104.373413	7399.476563	2894.293945	28.433538
289.481934	1106.137085	7369.988770	2881.475342	28.342598
289.856842	1104.395020	7367.579590	2877.173584	28.304747
290.231659	1103.276611	7383.409668	2878.184570	28.262268
290.606506	1102.717407	7399.583984	2874.872314	28.143440
290.981262	1104.029419	7420.532715	2876.765137	28.065144
291.355988	1103.341064	7460.408203	2884.314209	28.015640
291.730713	1101.276245	7499.531250	2894.681152	28.029594
292.105377	1100.996582	7523.040527	2901.671143	28.038963
292.480011	1102.115112	7531.126953	2909.414063	28.111614
292.854614	1101.340698	7544.418945	2921.566406	28.250872
293.229187	1102.093628	7573.949707	2935.159180	28.323647
293.603729	1104.115356	7617.632324	2960.452881	28.499771
293.978241	1103.771240	7652.840332	2985.574219	28.733900
294.352692	1101.964478	7681.683105	3007.254150	28.957008
294.727081	1101.061035	7708.525391	3037.924805	29.313269
295.101501	1098.609253	7761.865234	3073.821777	29.643354
295.475830	1095.512085	7848.133301	3116.213867	29.924702
295.850189	1095.038940	7991.893555	3173.597412	30.137777
296.224457	1091.683716	8203.381836	3254.317139	30.409519
296.598694	1089.403809	8463.350586	3348.888184	30.641453
296.972931	1089.016602	8729.597656	3445.953857	30.847618
297.347107	1088.586426	8935.946289	3530.415771	31.116571
297.721283	1087.898071	9061.037109	3583.411621	31.299011
298.095367	1089.769409	9098.051758	3608.683350	31.453863
298.469452	1092.737427	9080.931641	3621.286865	31.653578
298.843475	1092.199707	9037.636719	3618.555664	31.796312
299.217529	1094.587158	8972.337891	3611.458008	31.949104
299.591492	1096.436890	8892.672852	3596.703369	32.070175
299.965424	1098.135864	8774.442383	3568.076416	32.176155
300.339325	1102.179565	8594.958008	3520.608398	32.276794
300.713196	1103.513062	8374.263672	3459.159912	32.398952
301.087036	1105.448730	8138.126465	3390.204834	32.487713
301.460815	1104.975586	7937.585938	3329.853760	32.562637
301.834564	1103.771118	7774.533203	3281.933594	32.652378
302.208282	1103.125854	7649.119141	3240.487549	32.651451
302.582001	1103.297974	7531.814453	3201.579590	32.640217
302.955658	1103.297974	7423.306641	3167.468018	32.660870
303.329254	1100.889038	7332.241699	3135.356201	32.648884
303.702820	1101.276245	7248.747070	3109.460205	32.666832
304.076416	1100.910645	7176.007813	3088.683594	32.720020
304.449921	1099.491089	7122.452637	3067.261719	32.671146
304.823395	1099.749146	7062.165527	3047.947510	32.674644
305.196838	1099.426636	7003.878418	3027.385742	32.652637
305.570251	1097.921021	6932.858887	2999.791260	32.594524
305.943604	1096.479980	6870.485840	2977.659424	32.580143
306.316986	1096.350952	6825.146973	2965.485596	32.627007
306.690277	1094.759399	6800.218750	2954.430664	32.594593
307.063507	1094.200073	6800.971680	2952.000000	32.554306
307.436768	1095.038940	6830.372070	2959.614258	32.510323
307.809937	1092.328979	6880.078125	2974.218262	32.515045
308.183136	1093.081665	6951.484375	2992.758057	32.426525
308.556244	1091.640747	7039.259277	3019.277588	32.410229
308.929321	1092.802002	7145.702637	3051.217285	32.354988
309.302399	1091.963379	7244.488770	3079.414063	32.303005
309.675446	1093.597778	7353.104492	3111.761963	32.241585
310.048401	1095.167969	7449.568359	3141.120850	32.197418
310.421356	1093.662354	7553.624512	3169.941162	32.140728
310.794281	1094.049438	7670.606445	3205.816406	32.110527
311.167145	1096.264771	7784.168945	3234.874023	31.977272
311.539978	1100.437378	7864.242676	3252.983643	31.824488
311.912781	1102.588135	7910.098145	3262.382813	31.726648
312.285553	1101.147095	7899.667480	3259.651367	31.749620
312.658295	1102.308472	7851.940430	3243.498535	31.723063
313.031006	1101.254639	7786.728027	3218.699951	31.672331
313.403656	1101.792358	7728.354980	3196.438965	31.609850
313.776276	1101.663208	7684.435547	3185.555664	31.656761
314.148865	1102.029053	7688.415527	3179.942383	31.548609
314.521454	1105.040161	7694.351563	3179.662598	31.484663
314.893982	1103.147583	7677.596680	3171.360840	31.458351
315.266449	1101.018311	7620.212891	3156.541992	31.530333
315.638885	1095.899292	7539.772949	3133.657227	31.623182
316.011322	1094.544189	7452.429199	3105.331055	31.626665
316.383667	1094.759277	7385.065430	3079.263184	31.548607
316.756042	1094.458130	7327.316895	3061.389893	31.557457
317.128326	1094.049561	7277.848145	3043.796631	31.529924
317.500610	1094.329102	7220.959473	3026.202881	31.532404
317.872833	1094.157104	7145.443848	2994.004883	31.395765
318.245087	1094.608643	7047.453613	2966.345947	31.442738
