Jaz Data File
++++++++++++++++++++++++++++++++++++
Date: Mon Apr 22 19:26:20 2019
User: jaz
Dark Spectrum Present: Yes
Reference Spectrum Present: Yes
Processed Spectrum Present: Yes
Spectrometers: JAZA2928
Integration Time (usec): 40000 (JAZA2928)
Spectra Averaged: 10 (JAZA2928)
Boxcar Smoothing: 5 (JAZA2928)
Correct for Electrical Dark: No (JAZA2928)
Strobe/Lamp Enabled: Yes (JAZA2928)
Correct for Detector Non-linearity: No (JAZA2928)
Correct for Stray Light: No (JAZA2928)
Number of Pixels in Processed Spectrum: 2048
>>>>>Begin Processed Spectral Data<<<<<
W	D	R	S	P
190.104553	0.000000	0.000000	0.000000	0.000000
190.488098	0.000000	0.000000	0.000000	0.000000
190.871613	1077.423828	1084.994751	1052.818604	-324.996368
191.255096	1080.499390	1079.079956	1079.789795	49.991402
191.638535	0.000000	0.000000	0.000000	0.000000
192.021942	903.294739	908.865295	896.670166	-118.921196
192.405334	1004.317993	1010.039124	999.435608	-85.339523
192.788696	1107.599609	1112.288330	1102.007446	-119.268417
193.172012	1111.471069	1116.052246	1109.298706	-47.419331
193.555313	1116.138306	1118.654663	1112.911987	-128.213837
193.938568	1122.375488	1122.956299	1115.213379	-1233.123169
194.321793	1125.386597	1126.505127	1120.418335	-444.177673
194.704987	1126.655640	1129.473267	1123.881104	-98.470673
195.088150	1127.429810	1129.387207	1127.257935	-8.780792
195.471298	1126.505249	1131.710083	1127.257935	14.461279
195.854401	1127.494629	1132.054199	1128.419434	20.282715
196.237457	1129.064575	1128.957031	1128.096802	899.886475
196.620499	1129.043091	1130.441040	1127.257935	-127.698219
197.003494	1127.171875	1130.140137	1126.806152	-12.321105
197.386475	1126.999878	1131.129395	1125.644897	-32.812084
197.769424	1126.419067	1132.441406	1126.677246	4.287017
198.152344	1123.365112	1134.527832	1127.494507	36.992729
198.535217	1120.934570	1135.947266	1126.397583	36.389286
198.918076	1121.149658	1138.098022	1126.462158	31.345207
199.300903	1121.838013	1139.668091	1127.322388	30.759119
199.683670	1123.838257	1144.421387	1127.193359	16.300255
200.066422	1123.730591	1145.023560	1127.322388	16.868465
200.449142	1121.967041	1147.884277	1126.612793	17.925337
200.831848	1122.719849	1149.174683	1128.118286	20.406242
201.214508	1123.537109	1149.002686	1128.806519	20.692284
201.597137	1122.891846	1150.120972	1128.828003	21.800762
201.979736	1122.612183	1152.874146	1127.559082	16.346922
202.362274	1122.633789	1149.088623	1128.032349	20.406704
202.744827	1121.257202	1147.625977	1127.322388	23.001394
203.127319	1119.171021	1146.055908	1125.644775	24.079531
203.509796	1116.525513	1142.786621	1124.139282	28.992567
203.892227	1113.406860	1136.872070	1122.440186	38.496674
204.274643	1110.567749	1137.151489	1119.493652	33.576553
204.657013	1110.804321	1134.850342	1116.955688	25.581644
205.039352	1108.223389	1132.441406	1113.578979	22.114077
205.421661	1104.932617	1135.796753	1109.255737	14.006937
205.803940	1103.964722	1135.516968	1109.621460	17.928164
206.186188	1103.771118	1133.344727	1109.685913	20.000248
206.568405	1101.921387	1134.248169	1108.158691	19.294542
206.950592	1103.297974	1136.119263	1106.631714	10.157249
207.332748	1101.340698	1133.882446	1105.986450	14.276282
207.714859	1099.964233	1136.269775	1103.857056	10.722391
208.096939	1099.598511	1137.732422	1104.846558	13.762152
208.478989	1098.695190	1137.280762	1106.201538	19.453768
208.861008	1098.931763	1138.291626	1111.858154	32.841557
209.243011	1099.318848	1140.765137	1114.718750	37.156288
209.624969	1098.652222	1139.410034	1117.450317	46.121452
210.006897	1098.480103	1140.377808	1118.246216	47.177078
210.388794	1097.469238	1141.345703	1118.052612	46.912106
210.770645	1097.426270	1141.603882	1119.149414	49.172291
211.152481	1097.146606	1140.549927	1122.268066	57.879120
211.534286	1097.404785	1143.152344	1123.278931	56.558529
211.916061	1097.490723	1141.238159	1125.946045	65.044548
212.297791	1097.985474	1142.119995	1125.709473	62.817039
212.679489	1097.125122	1143.195435	1124.741455	59.943882
213.061157	1093.662354	1142.313599	1121.386353	56.985180
213.442795	1093.812988	1142.786743	1120.052856	53.579449
213.824402	1094.071167	1142.829712	1119.149414	51.433544
214.205963	1094.823730	1141.496216	1117.342773	48.249077
214.587524	1093.705444	1141.195190	1118.504150	52.219074
214.969025	1094.952881	1142.937378	1118.547241	49.170799
215.350510	1093.554932	1145.948486	1116.202881	43.226593
215.731949	1092.823730	1144.572021	1117.729858	48.129372
216.113358	1092.221558	1147.841309	1116.826538	44.237846
216.494736	1093.361328	1147.239014	1117.923462	45.588696
216.876083	1093.124878	1145.324707	1119.106323	49.773048
217.257401	1094.823975	1146.765747	1122.827271	53.912861
217.638702	1094.910034	1149.389771	1123.558594	52.585716
218.019943	1095.791748	1151.841553	1127.408569	56.408440
218.401169	1094.006592	1152.142700	1129.989502	61.894253
218.782349	1094.372070	1154.788208	1130.548706	59.879093
219.163498	1094.436646	1158.272583	1131.667114	58.322113
219.544632	1098.286621	1158.659668	1134.032837	59.208897
219.925705	1102.416138	1162.423584	1133.817871	52.329727
220.306778	1103.104370	1163.929199	1135.151489	52.687561
220.687805	1101.082520	1168.661011	1135.689087	51.209442
221.068802	1101.770996	1176.640503	1137.990479	48.376816
221.449738	1101.985840	1182.598145	1140.463867	47.732201
221.830673	1099.340454	1186.620117	1144.916016	52.217846
222.211563	1098.394043	1191.932617	1146.141968	51.046238
222.592438	1098.759766	1200.084106	1146.292480	46.911446
222.973267	1099.060913	1206.730225	1146.787231	44.326759
223.354065	1097.727417	1211.655518	1150.594116	46.403564
223.734848	1093.791382	1217.828369	1154.422607	48.881569
224.115555	1090.436157	1228.302734	1158.487549	49.360325
224.496262	1092.694458	1238.497559	1164.122681	48.989510
224.876923	1092.178223	1246.498535	1168.682495	49.574986
225.257568	1091.016846	1255.639526	1175.457520	51.293465
225.638168	1088.113281	1265.554688	1179.178345	51.321201
226.018723	1090.479248	1277.147583	1183.566040	49.867477
226.399277	1092.328735	1291.923462	1191.050781	49.461250
226.779785	1094.759277	1309.861206	1201.245605	49.505054
227.160263	1093.726929	1333.046875	1214.903198	50.633587
227.540695	1093.103149	1363.351685	1228.668457	50.163197
227.921112	1091.984741	1408.217529	1248.584839	49.520512
228.301483	1092.501099	1466.525879	1277.857300	49.557198
228.681824	1092.006348	1543.460083	1315.862061	49.585526
229.062134	1095.339966	1631.212891	1359.480347	49.291607
229.442413	1095.404419	1713.438232	1398.560425	49.051685
229.822647	1099.469604	1782.349976	1428.951294	48.248814
230.202881	1100.846069	1832.011841	1451.147583	47.910000
230.583054	1100.674072	1871.651245	1469.063843	47.782188
230.963196	1098.372681	1904.106934	1484.226929	47.888523
231.343292	1097.576782	1930.819946	1495.325073	47.734959
231.723404	1097.146606	1946.348755	1503.326050	47.830711
232.103439	1098.372681	1940.670654	1497.755493	47.415859
232.483459	1098.630737	1913.054321	1483.882813	47.303650
232.863434	1096.802612	1867.650757	1460.245483	47.148441
233.243393	1091.662109	1814.934814	1430.994507	46.916245
233.623306	1092.909668	1767.294434	1404.926758	46.266926
234.003174	1092.242920	1737.763672	1389.505493	46.050041
234.383041	1089.382324	1724.880371	1383.612305	46.299118
234.762848	1090.930786	1717.675293	1381.031372	46.286896
235.142639	1091.855591	1711.932495	1378.213745	46.181072
235.522385	1094.135498	1708.491089	1378.557861	46.296047
235.902115	1095.834839	1710.212036	1376.299561	45.650249
236.281799	1095.641113	1716.384766	1383.268188	46.335888
236.661438	1096.178833	1729.009888	1390.021729	46.433071
237.041077	1095.576660	1740.946899	1393.828613	46.214085
237.420654	1098.458618	1747.033569	1400.861816	46.625790
237.800217	1097.963989	1755.550659	1402.517944	46.313889
238.179733	1098.351074	1761.530029	1405.034302	46.244415
238.559219	1100.372925	1769.509644	1406.647461	45.771591
238.938690	1098.265137	1782.220703	1410.174683	45.603775
239.318100	1096.630493	1800.158325	1415.336670	45.301147
239.697510	1097.017578	1821.687988	1420.756714	44.673985
240.076859	1097.168091	1847.260986	1434.263794	44.940529
240.456177	1098.178955	1891.976440	1450.115356	44.335793
240.835464	1096.651855	1948.263184	1469.472534	43.778267
241.214722	1097.275757	2024.745728	1500.099976	43.432590
241.593948	1097.963989	2132.092285	1539.223022	42.669659
241.973129	1097.856567	2259.333740	1595.165527	42.816936
242.352295	1097.297363	2406.750000	1654.656616	42.564293
242.731415	1097.856323	2553.327148	1714.792969	42.387428
243.110519	1095.877686	2674.417480	1764.175659	42.336468
243.489578	1095.877686	2769.440186	1801.922241	42.188122
243.868607	1096.049805	2835.943115	1828.205078	42.080471
244.247604	1097.684448	2886.035156	1844.185425	41.742428
244.626541	1098.910278	2917.953125	1857.584839	41.707348
245.005493	1099.792114	2945.719727	1866.811768	41.551991
245.384369	1100.114868	2970.948975	1875.114136	41.425335
245.763229	1100.609497	2998.909180	1886.577759	41.403805
246.142059	1102.760254	3052.937500	1902.730469	41.020386
246.520859	1102.351685	3154.261475	1944.025757	41.019062
246.899612	1100.889038	3308.366943	2004.957886	40.954830
247.278336	1101.942993	3494.518799	2076.536865	40.734089
247.657043	1102.394653	3664.540039	2145.857178	40.726124
248.035690	1101.405273	3803.309570	2204.853760	40.839657
248.414322	1100.867676	3921.002197	2254.279297	40.899170
248.792908	1099.297607	4008.367432	2289.638672	40.918270
249.171478	1099.835205	4061.642822	2310.673584	40.881737
249.550003	1101.104126	4068.827148	2315.319336	40.914032
249.928482	1100.588013	4035.661621	2300.349365	40.876701
250.306961	1099.620117	3942.724854	2264.538818	40.973473
250.685364	1099.362061	3780.747803	2199.992920	41.047092
251.063782	1100.652466	3577.324951	2116.821533	41.029613
251.442123	1101.168701	3379.536865	2040.016357	41.207020
251.820450	1102.416138	3241.261963	1983.084473	41.174934
252.198761	1102.201050	3168.177490	1950.048096	41.038559
252.576996	1101.276245	3111.740479	1928.217163	41.131840
252.955246	1101.921509	3063.153809	1912.193726	41.314445
253.333420	1101.039673	3017.792969	1895.073486	41.425980
253.711578	1100.437500	2990.306152	1882.448364	41.379112
254.089706	1100.308472	2965.872803	1874.920410	41.521587
254.467804	1098.716675	2948.537354	1866.661621	41.514561
254.845871	1099.856567	2933.202148	1856.509644	41.271709
255.223877	1098.996338	2907.005371	1844.314453	41.223141
255.601898	1100.480347	2870.334229	1827.882324	41.099548
255.979828	1098.265137	2818.026367	1807.643311	41.248642
256.357727	1098.630737	2763.826172	1783.812378	41.147221
256.735657	1098.480225	2741.457764	1771.853882	40.984959
257.113525	1098.071411	2758.492432	1774.348755	40.729267
257.491333	1098.480347	2812.197754	1796.459106	40.728931
257.869110	1097.835083	2891.799072	1829.000854	40.756992
258.246887	1097.684448	3007.146729	1873.930908	40.652622
258.624573	1097.232788	3174.092285	1941.100708	40.631924
259.002289	1097.275757	3402.142090	2033.778931	40.631565
259.379944	1098.566284	3704.265625	2155.557373	40.564587
259.757538	1098.415649	4068.052490	2300.113037	40.466141
260.135162	1099.318970	4428.032715	2439.807617	40.270470
260.512665	1100.760010	4715.939453	2554.639160	40.215961
260.890228	1099.792114	4904.715332	2626.024414	40.112038
261.267700	1101.147095	5016.622070	2665.685303	39.957813
261.645142	1101.942871	5083.039063	2688.354492	39.848614
262.022552	1103.211914	5120.677734	2700.786133	39.765720
262.399994	1102.717285	5125.904297	2699.581787	39.691532
262.777313	1103.857178	5080.715820	2677.557617	39.571445
263.154602	1104.911011	4961.216309	2624.884277	39.415276
263.531921	1102.824707	4760.159180	2540.164063	39.300190
263.909149	1102.459106	4480.791504	2424.300537	39.127037
264.286377	1101.491333	4192.583984	2307.769775	39.024338
264.663574	1099.878174	3972.277100	2217.930664	38.923996
265.040710	1101.921509	3845.767090	2165.515625	38.762897
265.417816	1099.168457	3795.782227	2144.114990	38.750324
265.794891	1099.340576	3797.803955	2142.458984	38.656013
266.171936	1099.104004	3841.508057	2152.804443	38.422508
266.548950	1099.921265	3899.708740	2170.892822	38.251884
266.925934	1101.383789	3954.425049	2189.755127	38.147758
267.302887	1100.329834	4020.368896	2210.876221	38.031902
267.679810	1102.308594	4091.776367	2236.341553	37.934277
268.056671	1102.652710	4176.216797	2264.431152	37.799065
268.433502	1101.749512	4266.658203	2295.101563	37.705734
268.810333	1101.684814	4350.517578	2324.094482	37.626118
269.187073	1099.039429	4426.677734	2349.667480	37.583054
269.563843	1101.362305	4488.276855	2368.981689	37.426968
269.940521	1100.588013	4541.895996	2385.736572	37.344769
270.317200	1099.899780	4605.710449	2407.287598	37.292027
270.693848	1099.146973	4713.035645	2446.883789	37.293259
271.070435	1097.705933	4884.304199	2502.740234	37.105450
271.447021	1095.856323	5082.371582	2570.103271	36.980843
271.823547	1093.920532	5251.705078	2626.841553	36.868698
272.200043	1092.931152	5382.043457	2673.277344	36.845531
272.576538	1096.501465	5496.100098	2712.378906	36.727837
272.952972	1096.630493	5606.415527	2749.265137	36.645531
273.329346	1099.641602	5698.835449	2778.451660	36.502270
273.705688	1097.490723	5766.155762	2798.755371	36.440067
274.082062	1094.221558	5809.837891	2811.466553	36.416130
274.458344	1094.049438	5806.568848	2807.960693	36.369320
274.834595	1093.060059	5748.755371	2780.215332	36.238525
275.210846	1093.748413	5652.141113	2743.286133	36.186829
275.587006	1095.361572	5538.041016	2701.065918	36.142700
275.963165	1096.135864	5473.688965	2674.159180	36.048065
276.339294	1095.920898	5444.265625	2657.856201	35.920227
276.715393	1094.329224	5440.265137	2655.318115	35.918358
277.091461	1093.942017	5437.361816	2650.672607	35.841125
277.467438	1092.931152	5444.867676	2653.361084	35.855991
277.843445	1094.372192	5460.289551	2657.318604	35.798809
278.219452	1097.361816	5481.604004	2662.889160	35.708050
278.595337	1097.275757	5513.521484	2670.632080	35.626560
278.971191	1097.318726	5547.805664	2682.074463	35.608593
279.347046	1096.716553	5572.969727	2690.118164	35.596775
279.722870	1095.727051	5607.189453	2694.527344	35.438625
280.098663	1096.953125	5631.234863	2700.463379	35.364151
280.474396	1098.222168	5683.004883	2712.808838	35.216209
280.850098	1099.727539	5749.679688	2728.208740	35.021461
281.225800	1099.770630	5852.595703	2761.374268	34.960335
281.601440	1099.125488	5983.816895	2802.820313	34.878250
281.977051	1098.996338	6153.665527	2857.300293	34.785740
282.352600	1100.265503	6314.695801	2909.199219	34.690918
282.728149	1102.996948	6448.454590	2951.935791	34.588974
283.103668	1104.007935	6547.198242	2982.778320	34.515976
283.479156	1102.588379	6633.079590	3009.620361	34.482143
283.854553	1102.502319	6720.380859	3041.817871	34.520428
284.229950	1098.480347	6819.877930	3073.499268	34.519871
284.605347	1096.501587	6916.750000	3108.750977	34.573254
284.980652	1094.888428	7007.728516	3136.238281	34.524017
285.355988	1092.500977	7095.331055	3157.896973	34.407036
285.731201	1094.243042	7173.210938	3181.189941	34.330612
286.106445	1094.888428	7234.551758	3200.396729	34.293549
286.481659	1094.802368	7309.464355	3222.786133	34.241344
286.856781	1091.490112	7380.248047	3238.788330	34.145031
287.231934	1093.942017	7436.878418	3256.360840	34.091763
287.607025	1097.254272	7468.667480	3260.361084	33.950191
287.982056	1100.114868	7471.699707	3257.693848	33.862518
288.357086	1103.577637	7457.009766	3248.252197	33.756157
288.732086	1104.201294	7427.049805	3232.679932	33.663284
289.107025	1104.373413	7399.476563	3218.721191	33.587181
289.481934	1106.137085	7369.988770	3208.031982	33.555950
289.856842	1104.395020	7367.579590	3199.278076	33.447571
290.231659	1103.276611	7383.409668	3200.375244	33.392586
290.606506	1102.717407	7399.583984	3199.902100	33.305210
290.981262	1104.029419	7420.532715	3208.827881	33.322208
291.355988	1103.341064	7460.408203	3217.151367	33.251343
291.730713	1101.276245	7499.531250	3230.056152	33.271255
292.105377	1100.996582	7523.040527	3240.035889	33.307766
292.480011	1102.115112	7531.126953	3247.305664	33.367344
292.854614	1101.340698	7544.418945	3255.823242	33.438713
293.229187	1102.093628	7573.949707	3275.051025	33.575493
293.603729	1104.115356	7617.632324	3299.398438	33.703499
293.978241	1103.771240	7652.840332	3323.121094	33.888020
294.352692	1101.964478	7681.683105	3346.780273	34.117203
294.727081	1101.061035	7708.525391	3373.127930	34.386368
295.101501	1098.609253	7761.865234	3405.432861	34.620068
295.475830	1095.512085	7848.133301	3452.320313	34.902122
295.850189	1095.038940	7991.893555	3519.704834	35.156113
296.224457	1091.683716	8203.381836	3609.285889	35.400856
296.598694	1089.403809	8463.350586	3716.783447	35.630573
296.972931	1089.016602	8729.597656	3825.936523	35.820835
297.347107	1088.586426	8935.946289	3918.034180	36.056046
297.721283	1087.898071	9061.037109	3978.579102	36.255245
298.095367	1089.769409	9098.051758	4009.743896	36.461933
298.469452	1092.737427	9080.931641	4015.078125	36.583248
298.843475	1092.199707	9037.636719	4008.281494	36.701340
299.217529	1094.587158	8972.337891	3997.850098	36.853958
299.591492	1096.436890	8892.672852	3978.364258	36.965626
299.965424	1098.135864	8774.442383	3942.295410	37.051147
300.339325	1102.179565	8594.958008	3882.997559	37.113308
300.713196	1103.513062	8374.263672	3805.955566	37.168686
301.087036	1105.448730	8138.126465	3726.504883	37.269676
301.460815	1104.975586	7937.585938	3650.968994	37.262383
301.834564	1103.771118	7774.533203	3592.746338	37.311707
302.208282	1103.125854	7649.119141	3542.868896	37.270786
302.582001	1103.297974	7531.814453	3500.605713	37.291771
302.955658	1103.297974	7423.306641	3461.740723	37.317081
303.329254	1100.889038	7332.241699	3428.102295	37.346844
303.702820	1101.276245	7248.747070	3395.130371	37.313786
304.076416	1100.910645	7176.007813	3368.374756	37.323914
304.449921	1099.491089	7122.452637	3345.210205	37.285965
304.823395	1099.749146	7062.165527	3325.422852	37.328384
305.196838	1099.426636	7003.878418	3298.000000	37.235859
305.570251	1097.921021	6932.858887	3270.641602	37.236397
305.943604	1096.479980	6870.485840	3243.864014	37.190540
306.316986	1096.350952	6825.146973	3230.056152	37.245262
306.690277	1094.759399	6800.218750	3217.667236	37.208355
307.063507	1094.200073	6800.971680	3213.430420	37.135365
307.436768	1095.038940	6830.372070	3218.807129	37.029552
307.809937	1092.328979	6880.078125	3232.938232	36.985180
308.183136	1093.081665	6951.484375	3253.801025	36.882393
308.556244	1091.640747	7039.259277	3285.396240	36.884602
308.929321	1092.802002	7145.702637	3319.314209	36.784222
309.302399	1091.963379	7244.488770	3353.942383	36.765049
309.675446	1093.597778	7353.104492	3388.871094	36.668598
310.048401	1095.167969	7449.568359	3421.843506	36.615185
310.421356	1093.662354	7553.624512	3450.814697	36.488640
310.794281	1094.049438	7670.606445	3485.313232	36.360416
311.167145	1096.264771	7784.168945	3525.640869	36.324921
311.539978	1100.437378	7864.242676	3553.279053	36.264229
311.912781	1102.588135	7910.098145	3565.538330	36.179901
312.285553	1101.147095	7899.667480	3562.269287	36.200848
312.658295	1102.308472	7851.940430	3539.879150	36.114128
313.031006	1101.254639	7786.728027	3509.768555	36.026077
313.403656	1101.792358	7728.354980	3486.109375	35.981201
313.776276	1101.663208	7684.435547	3473.096924	36.024845
314.148865	1102.029053	7688.415527	3470.537598	35.960667
314.521454	1105.040161	7694.351563	3469.375977	35.881382
314.893982	1103.147583	7677.596680	3463.461670	35.901318
315.266449	1101.018311	7620.212891	3436.597900	35.826199
315.638885	1095.899292	7539.772949	3402.529053	35.795704
316.011322	1094.544189	7452.429199	3370.202881	35.792702
316.383667	1094.759277	7385.065430	3342.414063	35.732040
316.756042	1094.458130	7327.316895	3320.949219	35.721828
317.128326	1094.049561	7277.848145	3303.377197	35.727676
317.500610	1094.329102	7220.959473	3280.922607	35.689987
317.872833	1094.157104	7145.443848	3250.209229	35.629650
318.245087	1094.608643	7047.453613	3212.785156	35.582592
318.617218	1093.468872	6948.925293	3180.609131	35.644363
