Jaz Data File
++++++++++++++++++++++++++++++++++++
Date: Mon Apr 22 19:25:47 2019
User: jaz
Dark Spectrum Present: Yes
Reference Spectrum Present: Yes
Processed Spectrum Present: Yes
Spectrometers: JAZA2928
Integration Time (usec): 40000 (JAZA2928)
Spectra Averaged: 10 (JAZA2928)
Boxcar Smoothing: 5 (JAZA2928)
Correct for Electrical Dark: No (JAZA2928)
Strobe/Lamp Enabled: Yes (JAZA2928)
Correct for Detector Non-linearity: No (JAZA2928)
Correct for Stray Light: No (JAZA2928)
Number of Pixels in Processed Spectrum: 2048
>>>>>Begin Processed Spectral Data<<<<<
W	D	R	S	P
190.104553	0.000000	0.000000	0.000000	0.000000
190.488098	0.000000	0.000000	0.000000	0.000000
190.871613	1077.423828	1084.994751	1068.670166	-115.622131
191.255096	1080.499390	1079.079956	1076.950684	250.008606
191.638535	0.000000	0.000000	0.000000	0.000000
192.021942	903.294739	908.865295	905.359558	37.066662
192.405334	1004.317993	1010.039124	1007.974426	63.911026
192.788696	1107.599609	1112.288330	1110.503296	61.929184
193.172012	1111.471069	1116.052246	1115.514526	88.262413
193.555313	1116.138306	1118.654663	1119.213989	122.227615
193.938568	1122.375488	1122.956299	1123.773682	240.731400
194.321793	1125.386597	1126.505127	1126.075073	61.551895
194.704987	1126.655640	1129.473267	1127.731201	38.172604
195.088150	1127.429810	1129.387207	1128.010742	29.678827
195.471298	1126.505249	1131.710083	1129.580811	59.090481
195.854401	1127.494629	1132.054199	1128.376221	19.334976
196.237457	1129.064575	1128.957031	1127.989258	999.886475
196.620499	1129.043091	1130.441040	1129.451782	29.235067
197.003494	1127.171875	1130.140137	1128.785034	54.346931
197.386475	1126.999878	1131.129395	1128.290283	31.248337
197.769424	1126.419067	1132.441406	1130.849731	73.570488
198.152344	1123.365112	1134.527832	1129.408691	54.140739
198.535217	1120.934570	1135.947266	1129.559448	57.450562
198.918076	1121.149658	1138.098022	1130.806763	56.979565
199.300903	1121.838013	1139.668091	1131.129395	52.110718
199.683670	1123.838257	1144.421387	1128.870972	24.450678
200.066422	1123.730591	1145.023560	1131.107910	34.646740
200.449142	1121.967041	1147.884277	1129.064697	27.385853
200.831848	1122.719849	1149.174683	1128.397949	21.463377
201.214508	1123.537109	1149.002686	1127.129028	14.104998
201.597137	1122.891846	1150.120972	1126.161011	12.006133
201.979736	1122.612183	1152.874146	1124.505005	6.254790
202.362274	1122.633789	1149.088623	1124.203979	5.935363
202.744827	1121.257202	1147.625977	1124.225342	11.256267
203.127319	1119.171021	1146.055908	1123.429565	15.839921
203.509796	1116.525513	1142.786621	1122.999390	24.651957
203.892227	1113.406860	1136.872070	1122.483154	38.679790
204.274643	1110.567749	1137.151489	1122.698242	45.631252
204.657013	1110.804321	1134.850342	1120.934570	42.128590
205.039352	1108.223389	1132.441406	1119.880737	48.135025
205.421661	1104.932617	1135.796753	1119.794678	48.153172
205.803940	1103.964722	1135.516968	1120.031250	50.920395
206.186188	1103.771118	1133.344727	1120.719482	57.309086
206.568405	1101.921387	1134.248169	1118.762207	52.095566
206.950592	1103.297974	1136.119263	1116.934082	41.546535
207.332748	1101.340698	1133.882446	1114.998535	41.970200
207.714859	1099.964233	1136.269775	1115.772705	43.542862
208.096939	1099.598511	1137.732422	1117.041748	45.742062
208.478989	1098.695190	1137.280762	1116.331909	45.708065
208.861008	1098.931763	1138.291626	1117.708374	47.704971
209.243011	1099.318848	1140.765137	1116.740601	42.034531
209.624969	1098.652222	1139.410034	1115.600708	41.583405
210.006897	1098.480103	1140.377808	1117.127808	44.507702
210.388794	1097.469238	1141.345703	1114.912476	39.755341
210.770645	1097.426270	1141.603882	1116.009277	42.064308
211.152481	1097.146606	1140.549927	1118.611816	49.455227
211.534286	1097.404785	1143.152344	1118.203125	45.463280
211.916061	1097.490723	1141.238159	1118.181519	47.296021
212.297791	1097.985474	1142.119995	1117.364258	43.908451
212.679489	1097.125122	1143.195435	1114.503662	37.721775
213.061157	1093.662354	1142.313599	1115.062866	43.987595
213.442795	1093.812988	1142.786743	1114.331543	41.897041
213.824402	1094.071167	1142.829712	1117.235229	47.507698
214.205963	1094.823730	1141.496216	1118.654785	51.060181
214.587524	1093.705444	1141.195190	1119.687134	54.710102
214.969025	1094.952881	1142.937378	1119.149536	50.425983
215.350510	1093.554932	1145.948486	1114.869385	40.681442
215.731949	1092.823730	1144.572021	1117.708496	48.088093
216.113358	1092.221558	1147.841309	1116.826660	44.238068
216.494736	1093.361328	1147.239014	1116.611450	43.153526
216.876083	1093.124878	1145.324707	1118.590332	48.784554
217.257401	1094.823975	1146.765747	1118.912964	46.376911
217.638702	1094.910034	1149.389771	1122.031494	49.782658
218.019943	1095.791748	1151.841553	1123.515503	49.462715
218.401169	1094.006592	1152.142700	1122.676636	49.315384
218.782349	1094.372070	1154.788208	1123.687622	48.522717
219.163498	1094.436646	1158.272583	1126.440674	50.134815
219.544632	1098.286621	1158.659668	1131.043457	54.257385
219.925705	1102.416138	1162.423584	1132.677979	50.430141
220.306778	1103.104370	1163.929199	1135.474121	53.217991
220.687805	1101.082520	1168.661011	1138.141113	54.837852
221.068802	1101.770996	1176.640503	1138.786255	49.439697
221.449738	1101.985840	1182.598145	1140.421021	47.679050
221.830673	1099.340454	1186.620117	1142.077148	48.965237
222.211563	1098.394043	1191.932617	1142.356689	46.999485
222.592438	1098.759766	1200.084106	1145.518311	46.147396
222.973267	1099.060913	1206.730225	1148.314209	45.744972
223.354065	1097.727417	1211.655518	1151.303833	47.026516
223.734848	1093.791382	1217.828369	1153.110596	47.823811
224.115555	1090.436157	1228.302734	1156.810059	48.143578
224.496262	1092.694458	1238.497559	1159.111328	45.552441
224.876923	1092.178223	1246.498535	1164.101196	46.606289
225.257568	1091.016846	1255.639526	1172.747437	49.647224
225.638168	1088.113281	1265.554688	1178.360962	50.860554
226.018723	1090.479248	1277.147583	1184.490845	50.362904
226.399277	1092.328735	1291.923462	1192.964966	50.420284
226.779785	1094.759277	1309.861206	1201.890869	49.805035
227.160263	1093.726929	1333.046875	1211.461914	49.195644
227.540695	1093.103149	1363.351685	1222.925781	48.038239
227.921112	1091.984741	1408.217529	1241.895752	47.405270
228.301483	1092.501099	1466.525879	1267.189209	46.704956
228.681824	1092.006348	1543.460083	1298.526489	45.745583
229.062134	1095.339966	1631.212891	1336.982788	45.093307
229.442413	1095.404419	1713.438232	1371.438599	44.663280
229.822647	1099.469604	1782.349976	1400.130371	44.028320
230.202881	1100.846069	1832.011841	1420.089966	43.662315
230.583054	1100.674072	1871.651245	1434.564819	43.307476
230.963196	1098.372681	1904.106934	1444.888794	43.006252
231.343292	1097.576782	1930.819946	1455.341675	42.936432
231.723404	1097.146606	1946.348755	1460.740112	42.815895
232.103439	1098.372681	1940.670654	1456.072998	42.467194
232.483459	1098.630737	1913.054321	1441.103394	42.050926
232.863434	1096.802612	1867.650757	1422.434448	42.243317
233.243393	1091.662109	1814.934814	1396.538696	42.152370
233.623306	1092.909668	1767.294434	1372.793823	41.502148
234.003174	1092.242920	1737.763672	1361.695801	41.741940
234.383041	1089.382324	1724.880371	1354.684082	41.747063
234.762848	1090.930786	1717.675293	1351.672974	41.602627
235.142639	1091.855591	1711.932495	1348.769287	41.432552
235.522385	1094.135498	1708.491089	1347.414307	41.226746
235.902115	1095.834839	1710.212036	1347.027222	40.885693
236.281799	1095.641113	1716.384766	1350.339355	41.031147
236.661438	1096.178833	1729.009888	1356.189575	41.086914
237.041077	1095.576660	1740.946899	1359.716797	40.928467
237.420654	1098.458618	1747.033569	1360.985840	40.477547
237.800217	1097.963989	1755.550659	1362.362427	40.207390
238.179733	1098.351074	1761.530029	1358.985596	39.300781
238.559219	1100.372925	1769.509644	1356.813354	38.324070
238.938690	1098.265137	1782.220703	1359.415771	38.182396
239.318100	1096.630493	1800.158325	1362.663452	37.814133
239.697510	1097.017578	1821.687988	1368.190918	37.420231
240.076859	1097.168091	1847.260986	1378.278320	37.476723
240.456177	1098.178955	1891.976440	1392.667114	37.098652
240.835464	1096.651855	1948.263184	1411.164063	36.931427
241.214722	1097.275757	2024.745728	1439.554565	36.904572
241.593948	1097.963989	2132.092285	1477.602295	36.710949
241.973129	1097.856567	2259.333740	1523.457764	36.643097
242.352295	1097.297363	2406.750000	1578.733276	36.766193
242.731415	1097.856323	2553.327148	1634.094971	36.842968
243.110519	1095.877686	2674.417480	1678.143433	36.886353
243.489578	1095.877686	2769.440186	1713.136841	36.882946
243.868607	1096.049805	2835.943115	1737.010986	36.839108
244.247604	1097.684448	2886.035156	1753.593750	36.676773
244.626541	1098.910278	2917.953125	1763.702393	36.546261
245.005493	1099.792114	2945.719727	1770.778564	36.349552
245.384369	1100.114868	2970.948975	1775.596191	36.105892
245.763229	1100.609497	2998.909180	1787.038696	36.160213
246.142059	1102.760254	3052.937500	1805.341919	36.026554
246.520859	1102.351685	3154.261475	1836.034058	35.756077
246.899612	1100.889038	3308.366943	1892.148438	35.844498
247.278336	1101.942993	3494.518799	1955.532715	35.676601
247.657043	1102.394653	3664.540039	2014.400024	35.595379
248.035690	1101.405273	3803.309570	2064.879639	35.659084
248.414322	1100.867676	3921.002197	2107.702148	35.701649
248.792908	1099.297607	4008.367432	2140.178955	35.780556
249.171478	1099.835205	4061.642822	2160.590332	35.814449
249.550003	1101.104126	4068.827148	2166.397461	35.895981
249.928482	1100.588013	4035.661621	2154.030273	35.891510
250.306961	1099.620117	3942.724854	2121.639160	35.947289
250.685364	1099.362061	3780.747803	2067.051758	36.089165
251.063782	1100.652466	3577.324951	1991.579956	35.972763
251.442123	1101.168701	3379.536865	1924.754639	36.148064
251.820450	1102.416138	3241.261963	1877.092651	36.219372
252.198761	1102.201050	3168.177490	1849.304199	36.162228
252.576996	1101.276245	3111.740479	1828.161987	36.155121
252.955246	1101.921509	3063.153809	1813.020386	36.257759
253.333420	1101.039673	3017.792969	1799.319580	36.430347
253.711578	1100.437500	2990.306152	1789.770264	36.475166
254.089706	1100.308472	2965.872803	1780.629028	36.467278
254.467804	1098.716675	2948.537354	1772.972290	36.449783
254.845871	1099.856567	2933.202148	1767.272705	36.404274
255.223877	1098.996338	2907.005371	1759.551147	36.534927
255.601898	1100.480347	2870.334229	1741.678101	36.228851
255.979828	1098.265137	2818.026367	1722.665161	36.307365
256.357727	1098.630737	2763.826172	1703.372559	36.316566
256.735657	1098.480225	2741.457764	1691.112793	36.070644
257.113525	1098.071411	2758.492432	1694.726196	35.933945
257.491333	1098.480347	2812.197754	1709.114868	35.632160
257.869110	1097.835083	2891.799072	1737.591797	35.661625
258.246887	1097.684448	3007.146729	1775.574951	35.501644
258.624573	1097.232788	3174.092285	1832.162598	35.386593
259.002289	1097.275757	3402.142090	1909.204224	35.226707
259.379944	1098.566284	3704.265625	2012.937500	35.091202
259.757538	1098.415649	4068.052490	2137.834717	35.001556
260.135162	1099.318970	4428.032715	2260.968262	34.897842
260.512665	1100.760010	4715.939453	2357.711182	34.768707
260.890228	1099.792114	4904.715332	2423.074219	34.778152
261.267700	1101.147095	5016.622070	2459.035645	34.680046
261.645142	1101.942871	5083.039063	2483.275146	34.697285
262.022552	1103.211914	5120.677734	2489.985840	34.518623
262.399994	1102.717285	5125.904297	2489.985840	34.481831
262.777313	1103.857178	5080.715820	2471.704102	34.395161
263.154602	1104.911011	4961.216309	2429.440674	34.347118
263.531921	1102.824707	4760.159180	2355.969238	34.263874
263.909149	1102.459106	4480.791504	2261.161865	34.298069
264.286377	1101.491333	4192.583984	2160.203125	34.250404
264.663574	1099.878174	3972.277100	2081.892334	34.187946
265.040710	1101.921509	3845.767090	2035.176880	34.012676
265.417816	1099.168457	3795.782227	2014.464844	33.942436
265.794891	1099.340576	3797.803955	2011.130981	33.789246
266.171936	1099.104004	3841.508057	2022.659302	33.676849
266.548950	1099.921265	3899.708740	2037.585938	33.490566
266.925934	1101.383789	3954.425049	2054.319092	33.400684
267.302887	1100.329834	4020.368896	2071.245850	33.250103
267.679810	1102.308594	4091.776367	2089.592041	33.025391
268.056671	1102.652710	4176.216797	2111.272461	32.815968
268.433502	1101.749512	4266.658203	2137.103271	32.713543
268.810333	1101.684814	4350.517578	2161.515137	32.621880
269.187073	1099.039429	4426.677734	2181.926270	32.542206
269.563843	1101.362305	4488.276855	2200.444824	32.450848
269.940521	1100.588013	4541.895996	2214.209961	32.360424
270.317200	1099.899780	4605.710449	2231.351807	32.273621
270.693848	1099.146973	4713.035645	2262.796631	32.199379
271.070435	1097.705933	4884.304199	2316.867676	32.196754
271.447021	1095.856323	5082.371582	2375.090088	32.089024
271.823547	1093.920532	5251.705078	2426.945801	32.060951
272.200043	1092.931152	5382.043457	2466.413086	32.022522
272.576538	1096.501465	5496.100098	2497.169678	31.836273
272.952972	1096.630493	5606.415527	2528.055176	31.740419
273.329346	1099.641602	5698.835449	2558.403076	31.717764
273.705688	1097.490723	5766.155762	2575.351318	31.654886
274.082062	1094.221558	5809.837891	2585.718506	31.628887
274.458344	1094.049438	5806.568848	2583.868652	31.614069
274.834595	1093.060059	5748.755371	2563.349854	31.580456
275.210846	1093.748413	5652.141113	2529.238281	31.491142
275.587006	1095.361572	5538.041016	2497.040771	31.550310
275.963165	1096.135864	5473.688965	2476.220947	31.526403
276.339294	1095.920898	5444.265625	2465.208740	31.489864
276.715393	1094.329224	5440.265137	2464.176270	31.520184
277.091461	1093.942017	5437.361816	2460.864258	31.471106
277.467438	1092.931152	5444.867676	2457.186035	31.348227
277.843445	1094.372192	5460.289551	2461.014648	31.302526
278.219452	1097.361816	5481.604004	2469.230469	31.290895
278.595337	1097.275757	5513.521484	2476.758301	31.236546
278.971191	1097.318726	5547.805664	2486.178711	31.206923
279.347046	1096.716553	5572.969727	2490.566650	31.138769
279.722870	1095.727051	5607.189453	2495.663818	31.030664
280.098663	1096.953125	5631.234863	2499.836670	30.939487
280.474396	1098.222168	5683.004883	2509.622803	30.784460
280.850098	1099.727539	5749.679688	2525.839844	30.669397
281.225800	1099.770630	5852.595703	2557.822266	30.677578
281.601440	1099.125488	5983.816895	2596.450684	30.653425
281.977051	1098.996338	6153.665527	2644.090820	30.567669
282.352600	1100.265503	6314.695801	2691.000000	30.506392
282.728149	1102.996948	6448.454590	2727.154785	30.383888
283.103668	1104.007935	6547.198242	2750.555664	30.249681
283.479156	1102.588379	6633.079590	2772.945557	30.202692
283.854553	1102.502319	6720.380859	2796.088135	30.146358
284.229950	1098.480347	6819.877930	2823.640137	30.152769
284.605347	1096.501587	6916.750000	2853.364258	30.185354
284.980652	1094.888428	7007.728516	2875.452881	30.113523
285.355988	1092.500977	7095.331055	2896.832031	30.058006
285.731201	1094.243042	7173.210938	2920.534180	30.042784
286.106445	1094.888428	7234.551758	2937.052002	30.004311
286.481659	1094.802368	7309.464355	2949.634277	29.846062
286.856781	1091.490112	7380.248047	2966.862305	29.821028
287.231934	1093.942017	7436.878418	2985.445313	29.820625
287.607025	1097.254272	7468.667480	2992.005371	29.738317
287.982056	1100.114868	7471.699707	2989.080322	29.646711
288.357086	1103.577637	7457.009766	2980.390625	29.540144
288.732086	1104.201294	7427.049805	2962.840088	29.395592
289.107025	1104.373413	7399.476563	2955.376709	29.403860
289.481934	1106.137085	7369.988770	2943.311035	29.329781
289.856842	1104.395020	7367.579590	2933.761475	29.208248
290.231659	1103.276611	7383.409668	2933.459961	29.142431
290.606506	1102.717407	7399.583984	2934.083984	29.083776
290.981262	1104.029419	7420.532715	2936.170166	29.005617
291.355988	1103.341064	7460.408203	2946.580078	28.995115
291.730713	1101.276245	7499.531250	2957.549072	29.012175
292.105377	1100.996582	7523.040527	2966.453613	29.047714
292.480011	1102.115112	7531.126953	2975.702148	29.142691
292.854614	1101.340698	7544.418945	2988.606934	29.291376
293.229187	1102.093628	7573.949707	3000.694336	29.336264
293.603729	1104.115356	7617.632324	3021.879883	29.442842
293.978241	1103.771240	7652.840332	3043.215820	29.614048
294.352692	1101.964478	7681.683105	3063.476318	29.811485
294.727081	1101.061035	7708.525391	3093.093018	30.148207
295.101501	1098.609253	7761.865234	3129.592285	30.480339
295.475830	1095.512085	7848.133301	3169.919678	30.720037
295.850189	1095.038940	7991.893555	3232.809326	30.996311
296.224457	1091.683716	8203.381836	3313.916260	31.247564
296.598694	1089.403809	8463.350586	3408.573242	31.450857
296.972931	1089.016602	8729.597656	3507.725098	31.656080
297.347107	1088.586426	8935.946289	3594.531250	31.933603
297.721283	1087.898071	9061.037109	3650.774902	32.143887
298.095367	1089.769409	9098.051758	3679.703369	32.340694
298.469452	1092.737427	9080.931641	3692.974121	32.550995
298.843475	1092.199707	9037.636719	3689.382080	32.687721
299.217529	1094.587158	8972.337891	3676.778320	32.778278
299.591492	1096.436890	8892.672852	3659.077393	32.870228
299.965424	1098.135864	8774.442383	3629.030518	32.970211
300.339325	1102.179565	8594.958008	3581.260986	33.086281
300.713196	1103.513062	8374.263672	3516.758057	33.191143
301.087036	1105.448730	8138.126465	3447.480713	33.302135
301.460815	1104.975586	7937.585938	3382.720215	33.336376
301.834564	1103.771118	7774.533203	3331.187256	33.390728
302.208282	1103.125854	7649.119141	3290.343018	33.413071
302.582001	1103.297974	7531.814453	3248.961914	33.377281
302.955658	1103.297974	7423.306641	3211.688232	33.360558
303.329254	1100.889038	7332.241699	3184.222412	33.433086
303.702820	1101.276245	7248.747070	3160.950928	33.504425
304.076416	1100.910645	7176.007813	3136.323975	33.504211
304.449921	1099.491089	7122.452637	3115.267822	33.468201
304.823395	1099.749146	7062.165527	3092.254150	33.417744
305.196838	1099.426636	7003.878418	3071.219482	33.395020
305.570251	1097.921021	6932.858887	3044.893555	33.367493
305.943604	1096.479980	6870.485840	3021.729004	33.343384
306.316986	1096.350952	6825.146973	3005.167969	33.319691
306.690277	1094.759399	6800.218750	2995.510742	33.314606
307.063507	1094.200073	6800.971680	2989.424072	33.210091
307.436768	1095.038940	6830.372070	2996.952148	33.161339
307.809937	1092.328979	6880.078125	3011.104004	33.152355
308.183136	1093.081665	6951.484375	3033.214600	33.117096
308.556244	1091.640747	7039.259277	3060.336182	33.100567
308.929321	1092.802002	7145.702637	3089.995850	32.995651
309.302399	1091.963379	7244.488770	3117.633545	32.924206
309.675446	1093.597778	7353.104492	3153.853271	32.914021
310.048401	1095.167969	7449.568359	3184.007568	32.872334
310.421356	1093.662354	7553.624512	3213.796143	32.819603
310.794281	1094.049438	7670.606445	3244.982910	32.706074
311.167145	1096.264771	7784.168945	3284.557617	32.720161
311.539978	1100.437378	7864.242676	3303.097656	32.565399
311.912781	1102.588135	7910.098145	3310.001709	32.426155
312.285553	1101.147095	7899.667480	3302.624268	32.381706
312.658295	1102.308472	7851.940430	3287.138428	32.369617
313.031006	1101.254639	7786.728027	3269.587646	32.433498
313.403656	1101.792358	7728.354980	3250.165771	32.420635
313.776276	1101.663208	7684.435547	3234.809326	32.404980
314.148865	1102.029053	7688.415527	3231.668945	32.333965
314.521454	1105.040161	7694.351563	3232.852295	32.291870
314.893982	1103.147583	7677.596680	3228.421631	32.326267
315.266449	1101.018311	7620.212891	3206.461670	32.296066
315.638885	1095.899292	7539.772949	3179.598389	32.336128
316.011322	1094.544189	7452.429199	3151.659424	32.355339
316.383667	1094.759277	7385.065430	3131.377197	32.377087
316.756042	1094.458130	7327.316895	3108.922852	32.320076
317.128326	1094.049561	7277.848145	3087.694580	32.239811
317.500610	1094.329102	7220.959473	3068.036133	32.215214
317.872833	1094.157104	7145.443848	3041.882568	32.186966
318.245087	1094.608643	7047.453613	3010.308594	32.181252
318.617218	1093.468872	6948.925293	2980.907227	32.233837
