Jaz Data File
++++++++++++++++++++++++++++++++++++
Date: Mon Apr 22 19:26:53 2019
User: jaz
Dark Spectrum Present: Yes
Reference Spectrum Present: Yes
Processed Spectrum Present: Yes
Spectrometers: JAZA2928
Integration Time (usec): 40000 (JAZA2928)
Spectra Averaged: 10 (JAZA2928)
Boxcar Smoothing: 5 (JAZA2928)
Correct for Electrical Dark: No (JAZA2928)
Strobe/Lamp Enabled: Yes (JAZA2928)
Correct for Detector Non-linearity: No (JAZA2928)
Correct for Stray Light: No (JAZA2928)
Number of Pixels in Processed Spectrum: 2048
>>>>>Begin Processed Spectral Data<<<<<
W	D	R	S	P
190.104553	0.000000	0.000000	0.000000	0.000000
190.488098	0.000000	0.000000	0.000000	0.000000
190.871613	1077.423828	1084.994751	1058.733276	-246.872833
191.255096	1080.499390	1079.079956	1084.284912	-266.692474
191.638535	0.000000	0.000000	0.000000	0.000000
192.021942	903.294739	908.865295	901.315857	-35.523952
192.405334	1004.317993	1010.039124	1003.930725	-6.769083
192.788696	1107.599609	1112.288330	1106.674683	-19.726633
193.172012	1111.471069	1116.052246	1113.019531	33.800529
193.555313	1116.138306	1118.654663	1115.191895	-37.610363
193.938568	1122.375488	1122.956299	1117.063354	-914.606995
194.321793	1125.386597	1126.505127	1121.364868	-359.554718
194.704987	1126.655640	1129.473267	1123.171387	-123.659126
195.088150	1127.429810	1129.387207	1122.762817	-238.428436
195.471298	1126.505249	1131.710083	1123.020874	-66.944977
195.854401	1127.494629	1132.054199	1121.644287	-128.309067
196.237457	1129.064575	1128.957031	1123.063843	5579.795898
196.620499	1129.043091	1130.441040	1122.009888	-503.108612
197.003494	1127.171875	1130.140137	1121.042114	-206.510117
197.386475	1126.999878	1131.129395	1121.601440	-130.728073
197.769424	1126.419067	1132.441406	1121.708862	-78.212219
198.152344	1123.365112	1134.527832	1122.956421	-3.661217
198.535217	1120.934570	1135.947266	1121.128174	1.289599
198.918076	1121.149658	1138.098022	1122.160645	5.965097
199.300903	1121.838013	1139.668091	1122.547729	3.980447
199.683670	1123.838257	1144.421387	1122.805786	-5.016101
200.066422	1123.730591	1145.023560	1122.956299	-3.636374
200.449142	1121.967041	1147.884277	1122.139038	0.663640
200.831848	1122.719849	1149.174683	1122.031372	-2.602460
201.214508	1123.537109	1149.002686	1122.461670	-4.223111
201.597137	1122.891846	1150.120972	1120.912964	-7.267519
201.979736	1122.612183	1152.874146	1119.644043	-9.808153
202.362274	1122.633789	1149.088623	1119.213989	-12.926937
202.744827	1121.257202	1147.625977	1116.353394	-18.597029
203.127319	1119.171021	1146.055908	1114.030396	-19.120872
203.509796	1116.525513	1142.786621	1116.977051	1.719417
203.892227	1113.406860	1136.872070	1114.697144	5.498707
204.274643	1110.567749	1137.151489	1112.933472	8.899134
204.657013	1110.804321	1134.850342	1112.589355	7.423408
205.039352	1108.223389	1132.441406	1111.707520	14.386524
205.421661	1104.932617	1135.796753	1109.965454	16.306425
205.803940	1103.964722	1135.516968	1107.922363	12.543138
206.186188	1103.771118	1133.344727	1109.901001	20.727545
206.568405	1101.921387	1134.248169	1109.513794	23.486431
206.950592	1103.297974	1136.119263	1112.073364	26.736885
207.332748	1101.340698	1133.882446	1109.901001	26.305601
207.714859	1099.964233	1136.269775	1105.750000	15.936318
208.096939	1099.598511	1137.732422	1106.610352	18.387415
208.478989	1098.695190	1137.280762	1108.266479	24.805357
208.861008	1098.931763	1138.291626	1107.879272	22.732573
209.243011	1099.318848	1140.765137	1107.965210	20.861609
209.624969	1098.652222	1139.410034	1107.255371	21.107977
210.006897	1098.480103	1140.377808	1108.545776	24.024405
210.388794	1097.469238	1141.345703	1108.137207	24.313646
210.770645	1097.426270	1141.603882	1107.406128	22.590307
211.152481	1097.146606	1140.549927	1108.718018	26.660198
211.534286	1097.404785	1143.152344	1108.051270	23.272245
211.916061	1097.490723	1141.238159	1109.513794	27.482916
212.297791	1097.985474	1142.119995	1111.277466	30.116997
212.679489	1097.125122	1143.195435	1109.729004	27.357925
213.061157	1093.662354	1142.313599	1111.191528	36.030270
213.442795	1093.812988	1142.786743	1111.578613	36.275806
213.824402	1094.071167	1142.829712	1113.062622	38.950005
214.205963	1094.823730	1141.496216	1114.094971	41.290367
214.587524	1093.705444	1141.195190	1113.643433	41.983776
214.969025	1094.952881	1142.937378	1115.837158	43.522968
215.350510	1093.554932	1145.948486	1115.299561	41.502487
215.731949	1092.823730	1144.572021	1117.988037	48.628284
216.113358	1092.221558	1147.841309	1118.633301	47.486267
216.494736	1093.361328	1147.239014	1118.461182	46.586735
216.876083	1093.124878	1145.324707	1121.343262	54.058384
217.257401	1094.823975	1146.765747	1119.902222	48.281464
217.638702	1094.910034	1149.389771	1120.956055	47.808640
218.019943	1095.791748	1151.841553	1120.869995	44.742790
218.401169	1094.006592	1152.142700	1121.493896	47.280952
218.782349	1094.372070	1154.788208	1123.666138	48.487156
219.163498	1094.436646	1158.272583	1125.236206	48.247997
219.544632	1098.286621	1158.659668	1125.730957	45.457928
219.925705	1102.416138	1162.423584	1129.838989	45.699081
220.306778	1103.104370	1163.929199	1134.613647	51.803314
220.687805	1101.082520	1168.661011	1135.646118	51.145859
221.068802	1101.770996	1176.640503	1136.377319	46.222187
221.449738	1101.985840	1182.598145	1141.023071	48.425896
221.830673	1099.340454	1186.620117	1142.141479	49.038944
222.211563	1098.394043	1191.932617	1146.550659	51.483162
222.592438	1098.759766	1200.084106	1147.368042	47.972950
222.973267	1099.060913	1206.730225	1149.131714	46.504246
223.354065	1097.727417	1211.655518	1148.895020	44.912189
223.734848	1093.791382	1217.828369	1150.271606	45.534985
224.115555	1090.436157	1228.302734	1149.260742	42.667763
224.496262	1092.694458	1238.497559	1148.421875	38.221008
224.876923	1092.178223	1246.498535	1151.088745	38.174187
225.257568	1091.016846	1255.639526	1152.744995	37.496746
225.638168	1088.113281	1265.554688	1157.175659	38.921230
226.018723	1090.479248	1277.147583	1163.047363	38.875427
226.399277	1092.328735	1291.923462	1167.047729	37.435356
226.779785	1094.759277	1309.861206	1175.113403	37.356300
227.160263	1093.726929	1333.046875	1181.372192	36.622631
227.540695	1093.103149	1363.351685	1194.212646	37.413521
227.921112	1091.984741	1408.217529	1208.042114	36.699982
228.301483	1092.501099	1466.525879	1229.012573	36.497974
228.681824	1092.006348	1543.460083	1254.413452	35.974251
229.062134	1095.339966	1631.212891	1282.696411	34.962849
229.442413	1095.404419	1713.438232	1307.903809	34.383133
229.822647	1099.469604	1782.349976	1323.862915	32.859829
230.202881	1100.846069	1832.011841	1337.197876	32.325336
230.583054	1100.674072	1871.651245	1345.822632	31.797123
230.963196	1098.372681	1904.106934	1354.490356	31.786867
231.343292	1097.576782	1930.819946	1363.975464	31.971302
231.723404	1097.146606	1946.348755	1364.168945	31.443907
232.103439	1098.372681	1940.670654	1361.889160	31.285423
232.483459	1098.630737	1913.054321	1350.425415	30.916918
232.863434	1096.802612	1867.650757	1334.896606	30.887276
233.243393	1091.662109	1814.934814	1316.335083	31.063383
233.623306	1092.909668	1767.294434	1301.860229	30.983879
234.003174	1092.242920	1737.763672	1294.224854	31.289766
234.383041	1089.382324	1724.880371	1290.310425	31.617422
234.762848	1090.930786	1717.675293	1290.073853	31.774202
235.142639	1091.855591	1711.932495	1287.600464	31.567839
235.522385	1094.135498	1708.491089	1284.589355	31.000589
235.902115	1095.834839	1710.212036	1282.675049	30.411320
236.281799	1095.641113	1716.384766	1287.858521	30.965666
236.661438	1096.178833	1729.009888	1291.687012	30.894215
237.041077	1095.576660	1740.946899	1293.966797	30.740515
237.420654	1098.458618	1747.033569	1296.633789	30.555477
237.800217	1097.963989	1755.550659	1300.548340	30.807247
238.179733	1098.351074	1761.530029	1303.258301	30.897728
238.559219	1100.372925	1769.509644	1302.871094	30.262600
238.938690	1098.265137	1782.220703	1304.742310	30.188683
239.318100	1096.630493	1800.158325	1306.979126	29.899120
239.697510	1097.017578	1821.687988	1313.625122	29.890491
240.076859	1097.168091	1847.260986	1322.551025	30.047337
240.456177	1098.178955	1891.976440	1330.358521	29.249220
240.835464	1096.651855	1948.263184	1343.542847	28.991041
241.214722	1097.275757	2024.745728	1364.835815	28.848379
241.593948	1097.963989	2132.092285	1392.860840	28.516466
241.973129	1097.856567	2259.333740	1425.639160	28.221182
242.352295	1097.297363	2406.750000	1467.988403	28.308855
242.731415	1097.856323	2553.327148	1509.283691	28.267649
243.110519	1095.877686	2674.417480	1545.395752	28.476828
243.489578	1095.877686	2769.440186	1572.194946	28.461277
243.868607	1096.049805	2835.943115	1591.982300	28.503614
244.247604	1097.684448	2886.035156	1606.392578	28.445658
244.626541	1098.910278	2917.953125	1615.339844	28.390181
245.005493	1099.792114	2945.719727	1621.985962	28.288967
245.384369	1100.114868	2970.948975	1626.631714	28.143427
245.763229	1100.609497	2998.909180	1635.213379	28.162249
246.142059	1102.760254	3052.937500	1649.150757	28.017479
246.520859	1102.351685	3154.261475	1672.336060	27.778238
246.899612	1100.889038	3308.366943	1713.932739	27.771225
247.278336	1101.942993	3494.518799	1758.626465	27.446716
247.657043	1102.394653	3664.540039	1805.643066	27.447638
248.035690	1101.405273	3803.309570	1840.378540	27.350090
248.414322	1100.867676	3921.002197	1870.059448	27.275003
248.792908	1099.297607	4008.367432	1893.653809	27.306192
249.171478	1099.835205	4061.642822	1909.591431	27.339933
249.550003	1101.104126	4068.827148	1912.064819	27.326023
249.928482	1100.588013	4035.661621	1903.160522	27.344202
250.306961	1099.620117	3942.724854	1878.361816	27.390539
250.685364	1099.362061	3780.747803	1834.721802	27.424616
251.063782	1100.652466	3577.324951	1779.209717	27.397942
251.442123	1101.168701	3379.536865	1728.644409	27.540575
251.820450	1102.416138	3241.261963	1694.037842	27.660793
252.198761	1102.201050	3168.177490	1673.132080	27.634922
252.576996	1101.276245	3111.740479	1658.549561	27.718639
252.955246	1101.921509	3063.153809	1646.332886	27.758638
253.333420	1101.039673	3017.792969	1635.750854	27.896713
253.711578	1100.437500	2990.306152	1627.449097	27.886150
254.089706	1100.308472	2965.872803	1619.426514	27.826328
254.467804	1098.716675	2948.537354	1615.296875	27.925961
254.845871	1099.856567	2933.202148	1609.790894	27.814413
255.223877	1098.996338	2907.005371	1601.402832	27.787830
255.601898	1100.480347	2870.334229	1590.326172	27.677191
255.979828	1098.265137	2818.026367	1572.754028	27.590393
256.357727	1098.630737	2763.826172	1558.709106	27.629091
256.735657	1098.480225	2741.457764	1553.117065	27.671518
257.113525	1098.071411	2758.492432	1557.074585	27.643782
257.491333	1098.480347	2812.197754	1571.528076	27.603601
257.869110	1097.835083	2891.799072	1597.165527	27.833918
258.246887	1097.684448	3007.146729	1627.233887	27.732908
258.624573	1097.232788	3174.092285	1669.346558	27.547064
259.002289	1097.275757	3402.142090	1729.913330	27.447908
259.379944	1098.566284	3704.265625	1812.762207	27.408993
259.757538	1098.415649	4068.052490	1905.440552	27.175880
260.135162	1099.318970	4428.032715	1995.838745	26.932919
260.512665	1100.760010	4715.939453	2072.342773	26.875092
260.890228	1099.792114	4904.715332	2120.112305	26.815788
261.267700	1101.147095	5016.622070	2150.223389	26.793077
261.645142	1101.942871	5083.039063	2166.806152	26.747992
262.022552	1103.211914	5120.677734	2173.624268	26.643969
262.399994	1102.717285	5125.904297	2173.839355	26.623720
262.777313	1103.857178	5080.715820	2161.816406	26.602888
263.154602	1104.911011	4961.216309	2128.371338	26.539921
263.531921	1102.824707	4760.159180	2072.106201	26.502401
263.909149	1102.459106	4480.791504	1999.882324	26.564087
264.286377	1101.491333	4192.583984	1926.453857	26.688377
264.663574	1099.878174	3972.277100	1867.693848	26.730816
265.040710	1101.921509	3845.767090	1832.377441	26.621611
265.417816	1099.168457	3795.782227	1815.536743	26.565475
265.794891	1099.340576	3797.803955	1813.171021	26.453220
266.171936	1099.104004	3841.508057	1822.720581	26.386213
266.548950	1099.921265	3899.708740	1833.237915	26.191868
266.925934	1101.383789	3954.425049	1844.658691	26.052021
267.302887	1100.329834	4020.368896	1861.822144	26.078156
267.679810	1102.308594	4091.776367	1879.910522	26.011383
268.056671	1102.652710	4176.216797	1896.837158	25.839203
268.433502	1101.749512	4266.658203	1915.463013	25.710489
268.810333	1101.684814	4350.517578	1932.604980	25.575960
269.187073	1099.039429	4426.677734	1950.155518	25.577183
269.563843	1101.362305	4488.276855	1963.662598	25.459759
269.940521	1100.588013	4541.895996	1977.234253	25.474215
270.317200	1099.899780	4605.710449	1989.816406	25.384048
270.693848	1099.146973	4713.035645	2015.324951	25.351583
271.070435	1097.705933	4884.304199	2057.609619	25.350027
271.447021	1095.856323	5082.371582	2100.217285	25.193958
271.823547	1093.920532	5251.705078	2137.942383	25.110050
272.200043	1092.931152	5382.043457	2173.237305	25.187174
272.576538	1096.501465	5496.100098	2203.692383	25.165726
272.952972	1096.630493	5606.415527	2230.082764	25.133177
273.329346	1099.641602	5698.835449	2250.322021	25.019176
273.705688	1097.490723	5766.155762	2265.592529	25.020039
274.082062	1094.221558	5809.837891	2273.421387	25.006271
274.458344	1094.049438	5806.568848	2273.163086	25.020876
274.834595	1093.060059	5748.755371	2258.537598	25.033373
275.210846	1093.748413	5652.141113	2232.297852	24.976994
275.587006	1095.361572	5538.041016	2206.875244	25.018991
275.963165	1096.135864	5473.688965	2189.109863	24.967691
276.339294	1095.920898	5444.265625	2181.151855	24.957335
276.715393	1094.329224	5440.265137	2177.925537	24.933554
277.091461	1093.942017	5437.361816	2174.398438	24.875708
277.467438	1092.931152	5444.867676	2178.205322	24.937729
277.843445	1094.372192	5460.289551	2181.711182	24.905167
278.219452	1097.361816	5481.604004	2182.614502	24.753485
278.595337	1097.275757	5513.521484	2185.625488	24.644230
278.971191	1097.318726	5547.805664	2190.314209	24.559010
279.347046	1096.716553	5572.969727	2195.712891	24.551702
279.722870	1095.727051	5607.189453	2198.573486	24.445431
280.098663	1096.953125	5631.234863	2204.681641	24.430077
280.474396	1098.222168	5683.004883	2211.693359	24.286238
280.850098	1099.727539	5749.679688	2224.920898	24.197956
281.225800	1099.770630	5852.595703	2245.654541	24.109531
281.601440	1099.125488	5983.816895	2275.894775	24.090965
281.977051	1098.996338	6153.665527	2313.125244	24.019949
282.352600	1100.265503	6314.695801	2353.883057	24.041315
282.728149	1102.996948	6448.454590	2382.531982	23.936867
283.103668	1104.007935	6547.198242	2409.976074	23.992697
283.479156	1102.588379	6633.079590	2431.613037	24.030861
283.854553	1102.502319	6720.380859	2453.831055	24.054075
284.229950	1098.480347	6819.877930	2474.349854	24.047787
284.605347	1096.501587	6916.750000	2497.427734	24.069868
284.980652	1094.888428	7007.728516	2519.430664	24.092352
285.355988	1092.500977	7095.331055	2544.014160	24.180481
285.731201	1094.243042	7173.210938	2558.962402	24.094870
286.106445	1094.888428	7234.551758	2572.447754	24.065805
286.481659	1094.802368	7309.464355	2585.997803	23.994795
286.856781	1091.490112	7380.248047	2604.882080	24.065039
287.231934	1093.942017	7436.878418	2616.281250	24.000544
287.607025	1097.254272	7468.667480	2621.314209	23.920280
287.982056	1100.114868	7471.699707	2620.862305	23.867647
288.357086	1103.577637	7457.009766	2614.775635	23.785538
288.732086	1104.201294	7427.049805	2606.430664	23.758743
289.107025	1104.373413	7399.476563	2594.127930	23.665293
289.481934	1106.137085	7369.988770	2585.416992	23.616138
289.856842	1104.395020	7367.579590	2583.330566	23.613155
290.231659	1103.276611	7383.409668	2584.277100	23.582312
290.606506	1102.717407	7399.583984	2588.836914	23.600937
290.981262	1104.029419	7420.532715	2596.794678	23.632778
291.355988	1103.341064	7460.408203	2608.710205	23.680244
291.730713	1101.276245	7499.531250	2619.184570	23.723787
292.105377	1100.996582	7523.040527	2629.960205	23.808052
292.480011	1102.115112	7531.126953	2643.660889	23.977959
292.854614	1101.340698	7544.418945	2657.447754	24.151609
293.229187	1102.093628	7573.949707	2683.171631	24.430056
293.603729	1104.115356	7617.632324	2709.153320	24.641647
293.978241	1103.771240	7652.840332	2739.780273	24.980787
294.352692	1101.964478	7681.683105	2778.021729	25.473083
294.727081	1101.061035	7708.525391	2814.929443	25.938368
295.101501	1098.609253	7761.865234	2855.816162	26.371595
295.475830	1095.512085	7848.133301	2909.500244	26.863468
295.850189	1095.038940	7991.893555	2980.369385	27.336092
296.224457	1091.683716	8203.381836	3071.713867	27.841875
296.598694	1089.403809	8463.350586	3175.791504	28.294043
296.972931	1089.016602	8729.597656	3282.815430	28.712461
297.347107	1088.586426	8935.946289	3373.127441	29.112225
297.721283	1087.898071	9061.037109	3442.125244	29.526978
298.095367	1089.769409	9098.051758	3481.226807	29.862303
298.469452	1092.737427	9080.931641	3498.261475	30.113487
298.843475	1092.199707	9037.636719	3504.455566	30.360266
299.217529	1094.587158	8972.337891	3506.799805	30.620575
299.591492	1096.436890	8892.672852	3494.991943	30.765554
299.965424	1098.135864	8774.442383	3477.097412	30.990965
300.339325	1102.179565	8594.958008	3435.650879	31.142937
300.713196	1103.513062	8374.263672	3379.838135	31.307981
301.087036	1105.448730	8138.126465	3318.991455	31.475105
301.460815	1104.975586	7937.585938	3263.522461	31.591833
301.834564	1103.771118	7774.533203	3217.495117	31.686396
302.208282	1103.125854	7649.119141	3180.135742	31.729483
302.582001	1103.297974	7531.814453	3146.088379	31.777010
302.955658	1103.297974	7423.306641	3115.956055	31.845812
303.329254	1100.889038	7332.241699	3087.823242	31.886082
303.702820	1101.276245	7248.747070	3068.853271	32.006287
304.076416	1100.910645	7176.007813	3042.505615	31.959900
304.449921	1099.491089	7122.452637	3024.202881	31.956236
304.823395	1099.749146	7062.165527	3008.222412	32.008385
305.196838	1099.426636	7003.878418	2994.005615	32.087299
305.570251	1097.921021	6932.858887	2970.002686	32.084003
305.943604	1096.479980	6870.485840	2951.290527	32.123463
306.316986	1096.350952	6825.146973	2939.482910	32.173111
306.690277	1094.759399	6800.218750	2935.955322	32.270775
307.063507	1094.200073	6800.971680	2939.031006	32.327049
307.436768	1095.038940	6830.372070	2947.311523	32.295815
307.809937	1092.328979	6880.078125	2961.786377	32.300251
308.183136	1093.081665	6951.484375	2987.187500	32.331436
308.556244	1091.640747	7039.259277	3017.148193	32.374428
308.929321	1092.802002	7145.702637	3048.420898	32.308792
309.302399	1091.963379	7244.488770	3074.079834	32.216309
309.675446	1093.597778	7353.104492	3105.696777	32.144688
310.048401	1095.167969	7449.568359	3139.227539	32.167622
310.421356	1093.662354	7553.624512	3173.124268	32.190002
310.794281	1094.049438	7670.606445	3203.300537	32.072266
311.167145	1096.264771	7784.168945	3233.218018	31.952507
311.539978	1100.437378	7864.242676	3257.285400	31.888088
311.912781	1102.588135	7910.098145	3267.135986	31.796471
312.285553	1101.147095	7899.667480	3262.855713	31.796749
312.658295	1102.308472	7851.940430	3247.090576	31.776285
313.031006	1101.254639	7786.728027	3227.346191	31.801659
313.403656	1101.792358	7728.354980	3207.107178	31.770845
313.776276	1101.663208	7684.435547	3195.514160	31.808043
314.148865	1102.029053	7688.415527	3191.018799	31.716780
314.521454	1105.040161	7694.351563	3189.878906	31.639708
314.893982	1103.147583	7677.596680	3182.674072	31.630426
315.266449	1101.018311	7620.212891	3170.048584	31.737514
315.638885	1095.899292	7539.772949	3147.099854	31.831797
316.011322	1094.544189	7452.429199	3122.860107	31.902370
316.383667	1094.759277	7385.065430	3101.244385	31.898052
316.756042	1094.458130	7327.316895	3082.339111	31.893566
317.128326	1094.049561	7277.848145	3061.885010	31.822437
317.500610	1094.329102	7220.959473	3044.140625	31.825186
317.872833	1094.157104	7145.443848	3021.427979	31.848944
318.245087	1094.608643	7047.453613	2991.209229	31.860407
