Jaz Data File
++++++++++++++++++++++++++++++++++++
Date: Mon Apr 22 19:27:30 2019
User: jaz
Dark Spectrum Present: Yes
Reference Spectrum Present: Yes
Processed Spectrum Present: Yes
Spectrometers: JAZA2928
Integration Time (usec): 40000 (JAZA2928)
Spectra Averaged: 10 (JAZA2928)
Boxcar Smoothing: 5 (JAZA2928)
Correct for Electrical Dark: No (JAZA2928)
Strobe/Lamp Enabled: Yes (JAZA2928)
Correct for Detector Non-linearity: No (JAZA2928)
Correct for Stray Light: No (JAZA2928)
Number of Pixels in Processed Spectrum: 2048
>>>>>Begin Processed Spectral Data<<<<<
W	D	R	S	P
190.104553	0.000000	0.000000	0.000000	0.000000
190.488098	0.000000	0.000000	0.000000	0.000000
190.871613	1077.423828	1084.994751	1052.345459	-331.245880
191.255096	1080.499390	1079.079956	1071.745605	616.709656
191.638535	0.000000	0.000000	0.000000	0.000000
192.021942	903.294739	908.865295	888.282166	-269.498627
192.405334	1004.317993	1010.039124	990.445313	-242.481461
192.788696	1107.599609	1112.288330	1092.178345	-328.901337
193.172012	1111.471069	1116.052246	1099.039429	-271.363464
193.555313	1116.138306	1118.654663	1103.082886	-518.822144
193.938568	1122.375488	1122.956299	1107.470581	-2566.225342
194.321793	1125.386597	1126.505127	1112.460449	-1155.636841
194.704987	1126.655640	1129.473267	1116.224487	-370.210541
195.088150	1127.429810	1129.387207	1118.869995	-437.305908
195.471298	1126.505249	1131.710083	1121.257324	-100.827904
195.854401	1127.494629	1132.054199	1122.784302	-103.306381
196.237457	1129.064575	1128.957031	1125.494263	3319.863770
196.620499	1129.043091	1130.441040	1126.548218	-178.466644
197.003494	1127.171875	1130.140137	1125.881470	-43.473434
197.386475	1126.999878	1131.129395	1122.762817	-102.604271
197.769424	1126.419067	1132.441406	1121.859375	-75.712982
198.152344	1123.365112	1134.527832	1121.364868	-17.918968
198.535217	1120.934570	1135.947266	1121.149658	1.432707
198.918076	1121.149658	1138.098022	1119.751587	-8.249004
199.300903	1121.838013	1139.668091	1117.278198	-25.573721
199.683670	1123.838257	1144.421387	1116.288818	-36.677795
200.066422	1123.730591	1145.023560	1115.837036	-37.071178
200.449142	1121.967041	1147.884277	1115.471436	-25.062878
200.831848	1122.719849	1149.174683	1114.632690	-30.569681
201.214508	1123.537109	1149.002686	1116.805054	-26.435905
201.597137	1122.891846	1150.120972	1119.192505	-13.585970
201.979736	1122.612183	1152.874146	1119.450684	-10.447105
202.362274	1122.633789	1149.088623	1117.600952	-19.024261
202.744827	1121.257202	1147.625977	1114.568237	-25.366991
203.127319	1119.171021	1146.055908	1114.675781	-16.720320
203.509796	1116.525513	1142.786621	1115.407104	-4.258801
203.892227	1113.406860	1136.872070	1116.116699	11.548326
204.274643	1110.567749	1137.151489	1114.417725	14.482445
204.657013	1110.804321	1134.850342	1112.460449	6.887326
205.039352	1108.223389	1132.441406	1110.395630	8.969525
205.421661	1104.932617	1135.796753	1106.502563	5.086636
205.803940	1103.964722	1135.516968	1104.781982	2.590183
206.186188	1103.771118	1133.344727	1103.383911	-1.309299
206.568405	1101.921387	1134.248169	1103.340942	4.391268
206.950592	1103.297974	1136.119263	1102.674194	-1.900533
207.332748	1101.340698	1133.882446	1098.953247	-7.336579
207.714859	1099.964233	1136.269775	1097.490723	-6.813039
208.096939	1099.598511	1137.732422	1094.995850	-12.069733
208.478989	1098.695190	1137.280762	1094.393677	-11.147985
208.861008	1098.931763	1138.291626	1094.372192	-11.584314
209.243011	1099.318848	1140.765137	1094.759277	-11.001155
209.624969	1098.652222	1139.410034	1096.028320	-6.437788
210.006897	1098.480103	1140.377808	1094.845337	-8.675333
210.388794	1097.469238	1141.345703	1097.103638	-0.833250
210.770645	1097.426270	1141.603882	1096.264893	-2.628881
211.152481	1097.146606	1140.549927	1099.125488	4.559287
211.534286	1097.404785	1143.152344	1102.631348	11.424790
211.916061	1097.490723	1141.238159	1104.975586	17.109261
212.297791	1097.985474	1142.119995	1105.836060	17.787857
212.679489	1097.125122	1143.195435	1105.534912	18.254250
213.061157	1093.662354	1142.313599	1105.986450	25.331514
213.442795	1093.812988	1142.786743	1104.846558	22.529556
213.824402	1094.071167	1142.829712	1104.567017	21.526175
214.205963	1094.823730	1141.496216	1105.319824	22.488825
214.587524	1093.705444	1141.195190	1102.889404	19.338827
214.969025	1094.952881	1142.937378	1101.964478	14.612212
215.350510	1093.554932	1145.948486	1099.039429	10.467885
215.731949	1092.823730	1144.572021	1097.598267	9.226461
216.113358	1092.221558	1147.841309	1097.727417	9.899108
216.494736	1093.361328	1147.239014	1099.189941	10.818233
216.876083	1093.124878	1145.324707	1102.330200	17.634775
217.257401	1094.823975	1146.765747	1102.824707	15.403272
217.638702	1094.910034	1149.389771	1104.953979	18.436111
218.019943	1095.791748	1151.841553	1105.599243	17.497822
218.401169	1094.006592	1152.142700	1109.513794	26.673960
218.782349	1094.372070	1154.788208	1111.234497	27.910467
219.163498	1094.436646	1158.272583	1113.084106	29.211540
219.544632	1098.286621	1158.659668	1114.073608	26.149065
219.925705	1102.416138	1162.423584	1114.202637	19.641727
220.306778	1103.104370	1163.929199	1114.095093	18.069468
220.687805	1101.082520	1168.661011	1114.525269	19.892052
221.068802	1101.770996	1176.640503	1115.364014	18.155613
221.449738	1101.985840	1182.598145	1118.073975	19.957418
221.830673	1099.340454	1186.620117	1120.160278	23.854153
222.211563	1098.394043	1191.932617	1119.945190	23.039850
222.592438	1098.759766	1200.084106	1119.708618	20.675045
222.973267	1099.060913	1206.730225	1119.988159	19.436594
223.354065	1097.727417	1211.655518	1124.268433	23.296286
223.734848	1093.791382	1217.828369	1127.731201	27.362659
224.115555	1090.436157	1228.302734	1132.226318	30.312033
224.496262	1092.694458	1238.497559	1135.387939	29.281601
224.876923	1092.178223	1246.498535	1136.958130	29.017508
225.257568	1091.016846	1255.639526	1140.635986	30.141132
225.638168	1088.113281	1265.554688	1143.969727	31.478811
226.018723	1090.479248	1277.147583	1147.518555	30.556498
226.399277	1092.328735	1291.923462	1155.713013	31.756489
226.779785	1094.759277	1309.861206	1164.015259	32.196819
227.160263	1093.726929	1333.046875	1175.608032	34.214073
227.540695	1093.103149	1363.351685	1186.555664	34.580212
227.921112	1091.984741	1408.217529	1201.245605	34.550770
228.301483	1092.501099	1466.525879	1219.398438	33.927521
228.681824	1092.006348	1543.460083	1246.864136	34.302029
229.062134	1095.339966	1631.212891	1280.610229	34.573544
229.442413	1095.404419	1713.438232	1307.129761	34.257889
229.822647	1099.469604	1782.349976	1328.293579	33.508648
230.202881	1100.846069	1832.011841	1346.575439	33.607887
230.583054	1100.674072	1871.651245	1359.007202	33.507236
230.963196	1098.372681	1904.106934	1366.083252	33.225666
231.343292	1097.576782	1930.819946	1372.987305	33.052837
231.723404	1097.146606	1946.348755	1376.643677	32.912903
232.103439	1098.372681	1940.670654	1374.535889	32.786877
232.483459	1098.630737	1913.054321	1368.470581	33.132618
232.863434	1096.802612	1867.650757	1352.081543	33.116631
233.243393	1091.662109	1814.934814	1328.895630	32.800011
233.623306	1092.909668	1767.294434	1311.624878	32.431812
234.003174	1092.242920	1737.763672	1302.484009	32.569221
234.383041	1089.382324	1724.880371	1295.708984	32.466923
234.762848	1090.930786	1717.675293	1292.676270	32.189430
235.142639	1091.855591	1711.932495	1292.332153	32.330917
235.522385	1094.135498	1708.491089	1289.729614	31.837280
235.902115	1095.834839	1710.212036	1288.159668	31.304031
236.281799	1095.641113	1716.384766	1291.127808	31.492338
236.661438	1096.178833	1729.009888	1293.601196	31.196693
237.041077	1095.576660	1740.946899	1295.579956	30.990475
237.420654	1098.458618	1747.033569	1300.053589	31.082756
237.800217	1097.963989	1755.550659	1300.849487	30.853043
238.179733	1098.351074	1761.530029	1302.935669	30.849079
238.559219	1100.372925	1769.509644	1303.602417	30.371893
238.938690	1098.265137	1782.220703	1305.581177	30.311331
239.318100	1096.630493	1800.158325	1306.785522	29.871601
239.697510	1097.017578	1821.687988	1311.216187	29.558073
240.076859	1097.168091	1847.260986	1319.561279	29.648752
240.456177	1098.178955	1891.976440	1330.874634	29.314238
240.835464	1096.651855	1948.263184	1344.639648	29.119833
241.214722	1097.275757	2024.745728	1366.814453	29.061716
241.593948	1097.963989	2132.092285	1394.774902	28.701555
241.973129	1097.856567	2259.333740	1433.532471	28.900774
242.352295	1097.297363	2406.750000	1472.117920	28.624216
242.731415	1097.856323	2553.327148	1515.650024	28.705055
243.110519	1095.877686	2674.417480	1550.987915	28.831091
243.489578	1095.877686	2769.440186	1582.281982	29.064005
243.868607	1096.049805	2835.943115	1605.080566	29.256435
244.247604	1097.684448	2886.035156	1618.135986	29.102320
244.626541	1098.910278	2917.953125	1628.502808	29.113802
245.005493	1099.792114	2945.719727	1636.740601	29.088274
245.384369	1100.114868	2970.948975	1643.063721	29.021753
245.763229	1100.609497	2998.909180	1653.516724	29.126446
246.142059	1102.760254	3052.937500	1669.389771	29.055283
246.520859	1102.351685	3154.261475	1700.296753	29.140905
246.899612	1100.889038	3308.366943	1740.495361	28.974527
247.278336	1101.942993	3494.518799	1790.501465	28.778963
247.657043	1102.394653	3664.540039	1835.517700	28.613638
248.035690	1101.405273	3803.309570	1871.715698	28.509909
248.414322	1100.867676	3921.002197	1904.472656	28.495272
248.792908	1099.297607	4008.367432	1928.432739	28.501726
249.171478	1099.835205	4061.642822	1944.047607	28.503283
249.550003	1101.104126	4068.827148	1946.305786	28.479801
249.928482	1100.588013	4035.661621	1935.487061	28.445591
250.306961	1099.620117	3942.724854	1906.429688	28.377764
250.685364	1099.362061	3780.747803	1858.875488	28.325407
251.063782	1100.652466	3577.324951	1803.234253	28.367975
251.442123	1101.168701	3379.536865	1749.141724	28.440224
251.820450	1102.416138	3241.261963	1712.427246	28.520576
252.198761	1102.201050	3168.177490	1691.392456	28.518785
252.576996	1101.276245	3111.740479	1675.476563	28.560583
252.955246	1101.921509	3063.153809	1660.657471	28.489025
253.333420	1101.039673	3017.792969	1646.483643	28.456659
253.711578	1100.437500	2990.306152	1637.815918	28.434696
254.089706	1100.308472	2965.872803	1633.836792	28.598763
254.467804	1098.716675	2948.537354	1629.363159	28.686375
254.845871	1099.856567	2933.202148	1624.308716	28.606289
255.223877	1098.996338	2907.005371	1616.200317	28.606272
255.601898	1100.480347	2870.334229	1602.822144	28.383236
255.979828	1098.265137	2818.026367	1583.464966	28.213209
256.357727	1098.630737	2763.826172	1569.764404	28.292995
256.735657	1098.480225	2741.457764	1562.817261	28.261923
257.113525	1098.071411	2758.492432	1566.215698	28.194313
257.491333	1098.480347	2812.197754	1581.636841	28.193476
257.869110	1097.835083	2891.799072	1604.026978	28.216391
258.246887	1097.684448	3007.146729	1632.094849	27.987482
258.624573	1097.232788	3174.092285	1676.594971	27.896072
259.002289	1097.275757	3402.142090	1739.247681	27.852894
259.379944	1098.566284	3704.265625	1819.322266	27.660751
259.757538	1098.415649	4068.052490	1917.441895	27.580015
260.135162	1099.318970	4428.032715	2014.464844	27.492476
260.512665	1100.760010	4715.939453	2087.807129	27.302853
260.890228	1099.792114	4904.715332	2137.426025	27.270823
261.267700	1101.147095	5016.622070	2165.558594	27.184734
261.645142	1101.942871	5083.039063	2180.893555	27.101849
262.022552	1103.211914	5120.677734	2189.410889	27.036919
262.399994	1102.717285	5125.904297	2187.367676	26.959980
262.777313	1103.857178	5080.715820	2171.989746	26.858702
263.154602	1104.911011	4961.216309	2137.619629	26.779743
263.531921	1102.824707	4760.159180	2080.903076	26.742929
263.909149	1102.459106	4480.791504	2004.291382	26.694597
264.286377	1101.491333	4192.583984	1928.217285	26.745426
264.663574	1099.878174	3972.277100	1868.812134	26.769749
265.040710	1101.921509	3845.767090	1830.656982	26.558908
265.417816	1099.168457	3795.782227	1812.439453	26.450617
265.794891	1099.340576	3797.803955	1812.482788	26.427715
266.171936	1099.104004	3841.508057	1822.957031	26.394835
266.548950	1099.921265	3899.708740	1838.141724	26.367016
266.925934	1101.383789	3954.425049	1852.530762	26.327940
267.302887	1100.329834	4020.368896	1867.973511	26.288815
267.679810	1102.308594	4091.776367	1883.760254	26.140160
268.056671	1102.652710	4176.216797	1902.966919	26.038639
268.433502	1101.749512	4266.658203	1921.700317	25.907566
268.810333	1101.684814	4350.517578	1940.283203	25.812298
269.187073	1099.039429	4426.677734	1956.199219	25.758804
269.563843	1101.362305	4488.276855	1971.921875	25.703617
269.940521	1100.588013	4541.895996	1982.869263	25.637962
270.317200	1099.899780	4605.710449	1992.806274	25.469332
270.693848	1099.146973	4713.035645	2019.798706	25.475376
271.070435	1097.705933	4884.304199	2062.707275	25.484652
271.447021	1095.856323	5082.371582	2106.497559	25.351496
271.823547	1093.920532	5251.705078	2148.309082	25.359383
272.200043	1092.931152	5382.043457	2180.958496	25.367191
272.576538	1096.501465	5496.100098	2207.735840	25.257631
272.952972	1096.630493	5606.415527	2235.545898	25.254316
273.329346	1099.641602	5698.835449	2260.774902	25.246452
273.705688	1097.490723	5766.155762	2278.131836	25.288624
274.082062	1094.221558	5809.837891	2286.111084	25.275372
274.458344	1094.049438	5806.568848	2288.713623	25.350859
274.834595	1093.060059	5748.755371	2269.635986	25.271755
275.210846	1093.748413	5652.141113	2241.654053	25.182245
275.587006	1095.361572	5538.041016	2215.650879	25.216522
275.963165	1096.135864	5473.688965	2197.648682	25.162750
276.339294	1095.920898	5444.265625	2186.443115	25.079020
276.715393	1094.329224	5440.265137	2183.560791	25.063221
277.091461	1093.942017	5437.361816	2182.399414	25.059916
277.467438	1092.931152	5444.867676	2181.732666	25.018782
277.843445	1094.372192	5460.289551	2184.765381	24.975121
278.219452	1097.361816	5481.604004	2190.551025	24.934507
278.595337	1097.275757	5513.521484	2193.669922	24.826385
278.971191	1097.318726	5547.805664	2202.337646	24.829170
279.347046	1096.716553	5572.969727	2209.263184	24.854418
279.722870	1095.727051	5607.189453	2210.037354	24.699537
280.098663	1096.953125	5631.234863	2215.242432	24.662987
280.474396	1098.222168	5683.004883	2226.168701	24.601963
280.850098	1099.727539	5749.679688	2240.922852	24.542088
281.225800	1099.770630	5852.595703	2260.473877	24.421333
281.601440	1099.125488	5983.816895	2292.714600	24.435303
281.977051	1098.996338	6153.665527	2331.149414	24.376534
282.352600	1100.265503	6314.695801	2367.992188	24.311893
282.728149	1102.996948	6448.454590	2398.899414	24.243059
283.103668	1104.007935	6547.198242	2416.385254	24.110443
283.479156	1102.588379	6633.079590	2433.075439	24.057304
283.854553	1102.502319	6720.380859	2456.863281	24.108051
284.229950	1098.480347	6819.877930	2478.220947	24.115448
284.605347	1096.501587	6916.750000	2501.771973	24.144508
284.980652	1094.888428	7007.728516	2522.183350	24.138906
285.355988	1092.500977	7095.331055	2542.357910	24.152889
285.731201	1094.243042	7173.210938	2560.295898	24.116806
286.106445	1094.888428	7234.551758	2572.211182	24.061951
286.481659	1094.802368	7309.464355	2584.449463	23.969881
286.856781	1091.490112	7380.248047	2598.085693	23.956966
287.231934	1093.942017	7436.878418	2613.291504	23.953409
287.607025	1097.254272	7468.667480	2618.776367	23.880449
287.982056	1100.114868	7471.699707	2617.033936	23.807562
288.357086	1103.577637	7457.009766	2612.280762	23.746269
288.732086	1104.201294	7427.049805	2604.688232	23.731186
289.107025	1104.373413	7399.476563	2595.074219	23.680325
289.481934	1106.137085	7369.988770	2588.557129	23.666271
289.856842	1104.395020	7367.579590	2584.793213	23.636509
290.231659	1103.276611	7383.409668	2589.804688	23.670328
290.606506	1102.717407	7399.583984	2595.934570	23.713654
290.981262	1104.029419	7420.532715	2600.988770	23.699177
291.355988	1103.341064	7460.408203	2608.387695	23.675173
291.730713	1101.276245	7499.531250	2616.646729	23.684122
292.105377	1100.996582	7523.040527	2626.024414	23.746767
292.480011	1102.115112	7531.126953	2634.584473	23.836781
292.854614	1101.340698	7544.418945	2643.875977	23.940968
293.229187	1102.093628	7573.949707	2656.544189	24.018621
293.603729	1104.115356	7617.632324	2674.245117	24.105713
293.978241	1103.771240	7652.840332	2692.096924	24.252693
294.352692	1101.964478	7681.683105	2709.217285	24.427378
294.727081	1101.061035	7708.525391	2729.650146	24.647717
295.101501	1098.609253	7761.865234	2757.847168	24.901308
295.475830	1095.512085	7848.133301	2797.744629	25.208471
295.850189	1095.038940	7991.893555	2850.912598	25.459051
296.224457	1091.683716	8203.381836	2919.802734	25.705801
296.598694	1089.403809	8463.350586	3003.082031	25.951885
296.972931	1089.016602	8729.597656	3082.790527	26.094532
297.347107	1088.586426	8935.946289	3152.885254	26.305647
297.721283	1087.898071	9061.037109	3196.460938	26.445831
298.095367	1089.769409	9098.051758	3224.421143	26.655552
298.469452	1092.737427	9080.931641	3232.486572	26.786392
298.843475	1092.199707	9037.636719	3232.830566	26.941637
299.217529	1094.587158	8972.337891	3225.840576	27.054085
299.591492	1096.436890	8892.672852	3209.687744	27.106043
299.965424	1098.135864	8774.442383	3188.523682	27.231686
300.339325	1102.179565	8594.958008	3147.615723	27.298767
300.713196	1103.513062	8374.263672	3089.243164	27.311213
301.087036	1105.448730	8138.126465	3028.913086	27.350384
301.460815	1104.975586	7937.585938	2979.853027	27.440134
301.834564	1103.771118	7774.533203	2942.751709	27.567774
302.208282	1103.125854	7649.119141	2900.811035	27.462376
302.582001	1103.297974	7531.814453	2867.817871	27.448322
302.955658	1103.297974	7423.306641	2838.975586	27.463215
303.329254	1100.889038	7332.241699	2815.252197	27.511894
303.702820	1101.276245	7248.747070	2797.077881	27.585356
304.076416	1100.910645	7176.007813	2776.494873	27.581192
304.449921	1099.491089	7122.452637	2760.385254	27.576038
304.823395	1099.749146	7062.165527	2743.587646	27.570005
305.196838	1099.426636	7003.878418	2727.951172	27.581301
305.570251	1097.921021	6932.858887	2708.099365	27.595467
305.943604	1096.479980	6870.485840	2687.838623	27.560738
306.316986	1096.350952	6825.146973	2676.933838	27.590141
306.690277	1094.759399	6800.218750	2666.846680	27.554087
307.063507	1094.200073	6800.971680	2662.136475	27.475016
307.436768	1095.038940	6830.372070	2665.771240	27.386942
307.809937	1092.328979	6880.078125	2674.202393	27.331409
308.183136	1093.081665	6951.484375	2691.150635	27.278236
308.556244	1091.640747	7039.259277	2711.260742	27.231403
308.929321	1092.802002	7145.702637	2740.942139	27.228931
309.302399	1091.963379	7244.488770	2769.719727	27.269394
309.675446	1093.597778	7353.104492	2796.066895	27.198135
310.048401	1095.167969	7449.568359	2821.467773	27.166998
310.421356	1093.662354	7553.624512	2848.976563	27.172207
310.794281	1094.049438	7670.606445	2879.023193	27.141462
311.167145	1096.264771	7784.168945	2908.102051	27.091255
311.539978	1100.437378	7864.242676	2927.954102	27.019062
311.912781	1102.588135	7910.098145	2937.116455	26.948597
312.285553	1101.147095	7899.667480	2931.158936	26.917795
312.658295	1102.308472	7851.940430	2919.372803	26.920940
313.031006	1101.254639	7786.728027	2896.359131	26.850821
313.403656	1101.792358	7728.354980	2877.410400	26.795462
313.776276	1101.663208	7684.435547	2862.978516	26.756435
314.148865	1102.029053	7688.415527	2860.096436	26.692440
314.521454	1105.040161	7694.351563	2861.537109	26.656759
314.893982	1103.147583	7677.596680	2855.192383	26.649302
315.266449	1101.018311	7620.212891	2837.813721	26.641258
315.638885	1095.899292	7539.772949	2816.692871	26.704334
316.011322	1094.544189	7452.429199	2794.109619	26.731617
316.383667	1094.759277	7385.065430	2776.881836	26.741505
316.756042	1094.458130	7327.316895	2761.524902	26.746422
317.128326	1094.049561	7277.848145	2747.351318	26.736021
317.500610	1094.329102	7220.959473	2733.241943	26.750641
317.872833	1094.157104	7145.443848	2714.314697	26.773771
318.245087	1094.608643	7047.453613	2685.322021	26.721903
