Jaz Data File
++++++++++++++++++++++++++++++++++++
Date: Mon Apr 22 19:25:55 2019
User: jaz
Dark Spectrum Present: Yes
Reference Spectrum Present: Yes
Processed Spectrum Present: Yes
Spectrometers: JAZA2928
Integration Time (usec): 40000 (JAZA2928)
Spectra Averaged: 10 (JAZA2928)
Boxcar Smoothing: 5 (JAZA2928)
Correct for Electrical Dark: No (JAZA2928)
Strobe/Lamp Enabled: Yes (JAZA2928)
Correct for Detector Non-linearity: No (JAZA2928)
Correct for Stray Light: No (JAZA2928)
Number of Pixels in Processed Spectrum: 2048
>>>>>Begin Processed Spectral Data<<<<<
W	D	R	S	P
190.104553	0.000000	0.000000	0.000000	0.000000
190.488098	0.000000	0.000000	0.000000	0.000000
190.871613	1077.423828	1084.994751	1054.238281	-306.244659
191.255096	1080.499390	1079.079956	1067.487061	916.726868
191.638535	0.000000	0.000000	0.000000	0.000000
192.021942	903.294739	908.865295	899.939453	-60.232502
192.405334	1004.317993	1010.039124	1003.070496	-21.805088
192.788696	1107.599609	1112.288330	1106.696167	-19.268419
193.172012	1111.471069	1116.052246	1114.288574	61.501774
193.555313	1116.138306	1118.654663	1120.504395	173.508301
193.938568	1122.375488	1122.956299	1124.483398	362.925598
194.321793	1125.386597	1126.505127	1128.957153	319.218597
194.704987	1126.655640	1129.473267	1129.924927	116.029808
195.088150	1127.429810	1129.387207	1131.495117	207.689423
195.471298	1126.505249	1131.710083	1133.022095	125.207558
195.854401	1127.494629	1132.054199	1134.076050	144.343002
196.237457	1129.064575	1128.957031	1135.151245	-5659.705078
196.620499	1129.043091	1130.441040	1135.409302	455.396423
197.003494	1127.171875	1130.140137	1133.237061	204.334595
197.386475	1126.999878	1131.129395	1132.828369	141.142212
197.769424	1126.419067	1132.441406	1131.107910	77.857506
198.152344	1123.365112	1134.527832	1130.742188	66.086716
198.535217	1120.934570	1135.947266	1130.376587	62.893547
198.918076	1121.149658	1138.098022	1127.343872	36.547562
199.300903	1121.838013	1139.668091	1128.247192	35.945889
199.683670	1123.838257	1144.421387	1129.860352	29.257429
200.066422	1123.730591	1145.023560	1128.462402	22.222414
200.449142	1121.967041	1147.884277	1128.333496	24.564560
200.831848	1122.719849	1149.174683	1127.408569	17.723494
201.214508	1123.537109	1149.002686	1127.344116	14.949620
201.597137	1122.891846	1150.120972	1127.343994	16.350685
201.979736	1122.612183	1152.874146	1127.021362	14.570039
202.362274	1122.633789	1149.088623	1125.386841	10.406611
202.744827	1121.257202	1147.625977	1124.784668	13.377436
203.127319	1119.171021	1146.055908	1126.763306	28.239973
203.509796	1116.525513	1142.786621	1127.752686	42.752090
203.892227	1113.406860	1136.872070	1125.859985	53.070587
204.274643	1110.567749	1137.151489	1125.602051	56.554501
204.657013	1110.804321	1134.850342	1123.988770	54.830063
205.039352	1108.223389	1132.441406	1122.053101	57.105053
205.421661	1104.932617	1135.796753	1121.149658	52.543320
205.803940	1103.964722	1135.516968	1119.385864	48.874943
206.186188	1103.771118	1133.344727	1118.848267	50.981770
206.568405	1101.921387	1134.248169	1117.063232	46.839939
206.950592	1103.297974	1136.119263	1114.202637	33.224361
207.332748	1101.340698	1133.882446	1111.535645	31.328821
207.714859	1099.964233	1136.269775	1109.664307	26.717886
208.096939	1099.598511	1137.732422	1109.126709	24.986155
208.478989	1098.695190	1137.280762	1109.513794	28.037951
208.861008	1098.931763	1138.291626	1111.772217	32.623219
209.243011	1099.318848	1140.765137	1113.342285	33.835205
209.624969	1098.652222	1139.410034	1114.869263	39.788792
210.006897	1098.480103	1140.377808	1114.374512	37.936230
210.388794	1097.469238	1141.345703	1114.632690	39.117672
210.770645	1097.426270	1141.603882	1117.493286	45.423496
211.152481	1097.146606	1140.549927	1120.031250	52.725559
211.534286	1097.404785	1143.152344	1121.579834	52.844456
211.916061	1097.490723	1141.238159	1121.687378	55.309883
212.297791	1097.985474	1142.119995	1120.956177	52.047020
212.679489	1097.125122	1143.195435	1120.052856	49.766830
213.061157	1093.662354	1142.313599	1117.536255	49.071510
213.442795	1093.812988	1142.786743	1117.020142	47.386917
213.824402	1094.071167	1142.829712	1114.525269	41.949780
214.205963	1094.823730	1141.496216	1113.707886	40.461002
214.587524	1093.705444	1141.195190	1115.493042	45.878532
214.969025	1094.952881	1142.937378	1113.922974	39.533794
215.350510	1093.554932	1145.948486	1111.385010	34.031052
215.731949	1092.823730	1144.572021	1109.277222	31.795237
216.113358	1092.221558	1147.841309	1109.664307	31.360710
216.494736	1093.361328	1147.239014	1109.836426	30.578703
216.876083	1093.124878	1145.324707	1110.976440	34.198509
217.257401	1094.823975	1146.765747	1112.976563	34.947956
217.638702	1094.910034	1149.389771	1113.191650	33.556728
218.019943	1095.791748	1151.841553	1116.417969	36.799809
218.401169	1094.006592	1152.142700	1116.740479	39.104591
218.782349	1094.372070	1154.788208	1114.998413	34.140453
219.163498	1094.436646	1158.272583	1118.160034	37.163063
219.544632	1098.286621	1158.659668	1120.117188	36.159458
219.925705	1102.416138	1162.423584	1122.289551	33.118244
220.306778	1103.104370	1163.929199	1122.655151	32.142765
220.687805	1101.082520	1168.661011	1125.020996	35.423218
221.068802	1101.770996	1176.640503	1127.343872	34.156597
221.449738	1101.985840	1182.598145	1130.204468	35.005360
221.830673	1099.340454	1186.620117	1132.204834	37.654110
222.211563	1098.394043	1191.932617	1134.076050	38.146835
222.592438	1098.759766	1200.084106	1135.431152	36.192081
222.973267	1099.060913	1206.730225	1139.947754	37.974461
223.354065	1097.727417	1211.655518	1141.109253	38.078259
223.734848	1093.791382	1217.828369	1144.937500	41.234570
224.115555	1090.436157	1228.302734	1149.389648	42.761265
224.496262	1092.694458	1238.497559	1156.530396	43.782291
224.876923	1092.178223	1246.498535	1159.068237	43.344917
225.257568	1091.016846	1255.639526	1162.036377	43.140793
225.638168	1088.113281	1265.554688	1166.079956	43.939392
226.018723	1090.479248	1277.147583	1171.284912	43.288361
226.399277	1092.328735	1291.923462	1177.887817	42.866405
226.779785	1094.759277	1309.861206	1189.803345	44.185596
227.160263	1093.726929	1333.046875	1198.557129	43.803368
227.540695	1093.103149	1363.351685	1212.580322	44.210110
227.921112	1091.984741	1408.217529	1226.861694	42.651161
228.301483	1092.501099	1466.525879	1249.079590	41.863132
228.681824	1092.006348	1543.460083	1274.824707	40.495480
229.062134	1095.339966	1631.212891	1308.742920	39.823425
229.442413	1095.404419	1713.438232	1339.198242	39.446682
229.822647	1099.469604	1782.349976	1362.878662	38.573235
230.202881	1100.846069	1832.011841	1380.149536	38.199745
230.583054	1100.674072	1871.651245	1392.946777	37.909386
230.963196	1098.372681	1904.106934	1403.163086	37.827660
231.343292	1097.576782	1930.819946	1411.228638	37.642296
231.723404	1097.146606	1946.348755	1416.132446	37.563004
232.103439	1098.372681	1940.670654	1414.734375	37.559357
232.483459	1098.630737	1913.054321	1403.915894	37.484814
232.863434	1096.802612	1867.650757	1384.494141	37.321426
233.243393	1091.662109	1814.934814	1361.222412	37.269524
233.623306	1092.909668	1767.294434	1341.585571	36.874485
234.003174	1092.242920	1737.763672	1328.594727	36.614128
234.383041	1089.382324	1724.880371	1323.303833	36.809162
234.762848	1090.930786	1717.675293	1319.797974	36.516823
235.142639	1091.855591	1711.932495	1318.098877	36.486328
235.522385	1094.135498	1708.491089	1315.431763	36.020874
235.902115	1095.834839	1710.212036	1312.420654	35.252907
236.281799	1095.641113	1716.384766	1314.119629	35.196255
236.661438	1096.178833	1729.009888	1316.851318	34.870678
237.041077	1095.576660	1740.946899	1321.540161	35.013004
237.420654	1098.458618	1747.033569	1323.798584	34.743858
237.800217	1097.963989	1755.550659	1324.658813	34.473755
238.179733	1098.351074	1761.530029	1327.540894	34.559273
238.559219	1100.372925	1769.509644	1329.218506	34.200123
238.938690	1098.265137	1782.220703	1330.853027	34.006287
239.318100	1096.630493	1800.158325	1332.487671	33.524925
239.697510	1097.017578	1821.687988	1338.187378	33.279930
240.076859	1097.168091	1847.260986	1346.080811	33.184254
240.456177	1098.178955	1891.976440	1356.684204	32.565643
240.835464	1096.651855	1948.263184	1375.955444	32.797073
241.214722	1097.275757	2024.745728	1398.560425	32.484573
241.593948	1097.963989	2132.092285	1430.005127	32.108311
241.973129	1097.856567	2259.333740	1469.988647	32.039551
242.352295	1097.297363	2406.750000	1513.391846	31.776215
242.731415	1097.856323	2553.327148	1555.612183	31.450706
243.110519	1095.877686	2674.417480	1592.885620	31.485296
243.489578	1095.877686	2769.440186	1620.996582	31.377310
243.868607	1096.049805	2835.943115	1643.773560	31.480307
244.247604	1097.684448	2886.035156	1654.248047	31.121614
244.626541	1098.910278	2917.953125	1662.744019	30.996178
245.005493	1099.792114	2945.719727	1667.669067	30.763771
245.384369	1100.114868	2970.948975	1671.863159	30.561144
245.763229	1100.609497	2998.909180	1680.616821	30.554045
246.142059	1102.760254	3052.937500	1695.908691	30.415104
246.520859	1102.351685	3154.261475	1723.890991	30.290773
246.899612	1100.889038	3308.366943	1769.359009	30.282066
247.278336	1101.942993	3494.518799	1822.935547	30.134577
247.657043	1102.394653	3664.540039	1873.070679	30.079323
248.035690	1101.405273	3803.309570	1912.839111	30.031923
248.414322	1100.867676	3921.002197	1950.241455	30.118200
248.792908	1099.297607	4008.367432	1979.277344	30.249523
249.171478	1099.835205	4061.642822	1993.902832	30.186554
249.550003	1101.104126	4068.827148	1998.355103	30.233648
249.928482	1100.588013	4035.661621	1987.085083	30.203571
250.306961	1099.620117	3942.724854	1956.823120	30.150244
250.685364	1099.362061	3780.747803	1907.311646	30.131792
251.063782	1100.652466	3577.324951	1848.013794	30.176027
251.442123	1101.168701	3379.536865	1792.071411	30.324453
251.820450	1102.416138	3241.261963	1752.625732	30.400023
252.198761	1102.201050	3168.177490	1730.300415	30.402056
252.576996	1101.276245	3111.740479	1715.847168	30.568607
252.955246	1101.921509	3063.153809	1700.124634	30.501390
253.333420	1101.039673	3017.792969	1686.553223	30.547152
253.711578	1100.437500	2990.306152	1677.842285	30.552641
254.089706	1100.308472	2965.872803	1670.830566	30.581743
254.467804	1098.716675	2948.537354	1666.894653	30.715300
254.845871	1099.856567	2933.202148	1664.292114	30.787188
255.223877	1098.996338	2907.005371	1655.860962	30.799881
255.601898	1100.480347	2870.334229	1643.816528	30.699493
255.979828	1098.265137	2818.026367	1625.319580	30.646955
256.357727	1098.630737	2763.826172	1606.650757	30.508131
256.735657	1098.480225	2741.457764	1597.101196	30.348618
257.113525	1098.071411	2758.492432	1601.144653	30.297934
257.491333	1098.480347	2812.197754	1616.479736	30.226652
257.869110	1097.835083	2891.799072	1640.826904	30.267710
258.246887	1097.684448	3007.146729	1674.615967	30.214344
258.624573	1097.232788	3174.092285	1721.396118	30.053230
259.002289	1097.275757	3402.142090	1785.145996	29.844259
259.379944	1098.566284	3704.265625	1872.210571	29.690468
259.757538	1098.415649	4068.052490	1977.320435	29.596375
260.135162	1099.318970	4428.032715	2082.924805	29.549126
260.512665	1100.760010	4715.939453	2164.246826	29.417263
260.890228	1099.792114	4904.715332	2218.597656	29.404154
261.267700	1101.147095	5016.622070	2250.623291	29.357260
261.645142	1101.942871	5083.039063	2269.765381	29.334194
262.022552	1103.211914	5120.677734	2279.938721	29.290276
262.399994	1102.717285	5125.904297	2278.454590	29.224028
262.777313	1103.857178	5080.715820	2263.334229	29.155602
263.154602	1104.911011	4961.216309	2227.286865	29.104954
263.531921	1102.824707	4760.159180	2165.343994	29.051739
263.909149	1102.459106	4480.791504	2080.924805	28.962978
264.286377	1101.491333	4192.583984	1994.957031	28.904526
264.663574	1099.878174	3972.277100	1930.131714	28.904535
265.040710	1101.921509	3845.767090	1890.320313	28.733351
265.417816	1099.168457	3795.782227	1870.425415	28.600943
265.794891	1099.340576	3797.803955	1867.951904	28.483297
266.171936	1099.104004	3841.508057	1871.328491	28.158669
266.548950	1099.921265	3899.708740	1885.136719	28.045536
266.925934	1101.383789	3954.425049	1900.235474	28.000004
267.302887	1100.329834	4020.368896	1916.667603	27.956398
267.679810	1102.308594	4091.776367	1933.013794	27.787729
268.056671	1102.652710	4176.216797	1953.510864	27.683111
268.433502	1101.749512	4266.658203	1975.922241	27.620789
268.810333	1101.684814	4350.517578	1995.989136	27.526943
269.187073	1099.039429	4426.677734	2013.626099	27.484558
269.563843	1101.362305	4488.276855	2030.273315	27.426468
269.940521	1100.588013	4541.895996	2042.274658	27.364206
270.317200	1099.899780	4605.710449	2057.114990	27.303679
270.693848	1099.146973	4713.035645	2083.526855	27.238800
271.070435	1097.705933	4884.304199	2123.058594	27.078465
271.447021	1095.856323	5082.371582	2169.537598	26.932829
271.823547	1093.920532	5251.705078	2216.059570	26.988869
272.200043	1092.931152	5382.043457	2252.730713	27.040550
272.576538	1096.501465	5496.100098	2281.659180	26.937860
272.952972	1096.630493	5606.415527	2311.039063	26.928303
273.329346	1099.641602	5698.835449	2333.859131	26.835518
273.705688	1097.490723	5766.155762	2351.775391	26.866024
274.082062	1094.221558	5809.837891	2363.239258	26.910963
274.458344	1094.049438	5806.568848	2365.863037	26.987974
274.834595	1093.060059	5748.755371	2353.152100	27.065603
275.210846	1093.748413	5652.141113	2323.556641	26.978989
275.587006	1095.361572	5538.041016	2296.327637	27.032471
275.963165	1096.135864	5473.688965	2274.088135	26.908920
276.339294	1095.920898	5444.265625	2260.495117	26.782013
276.715393	1094.329224	5440.265137	2254.515869	26.695898
277.091461	1093.942017	5437.361816	2253.892090	26.705915
277.467438	1092.931152	5444.867676	2255.182617	26.706535
277.843445	1094.372192	5460.289551	2259.140137	26.678652
278.219452	1097.361816	5481.604004	2264.452637	26.620127
278.595337	1097.275757	5513.521484	2266.001221	26.464231
278.971191	1097.318726	5547.805664	2268.926270	26.325380
279.347046	1096.716553	5572.969727	2278.045898	26.391031
279.722870	1095.727051	5607.189453	2280.325439	26.257526
280.098663	1096.953125	5631.234863	2286.713623	26.239227
280.474396	1098.222168	5683.004883	2297.273926	26.152859
280.850098	1099.727539	5749.679688	2315.921631	26.154982
281.225800	1099.770630	5852.595703	2335.945313	26.009260
281.601440	1099.125488	5983.816895	2367.884766	25.974195
281.977051	1098.996338	6153.665527	2407.265869	25.882399
282.352600	1100.265503	6314.695801	2443.721924	25.764204
282.728149	1102.996948	6448.454590	2479.210205	25.745472
283.103668	1104.007935	6547.198242	2504.310059	25.725760
283.479156	1102.588379	6633.079590	2526.441650	25.745512
283.854553	1102.502319	6720.380859	2552.488037	25.810202
284.229950	1098.480347	6819.877930	2577.437500	25.849579
284.605347	1096.501587	6916.750000	2599.870605	25.829979
284.980652	1094.888428	7007.728516	2620.604004	25.803431
285.355988	1092.500977	7095.331055	2644.585693	25.855883
285.731201	1094.243042	7173.210938	2661.706055	25.785019
286.106445	1094.888428	7234.551758	2674.223633	25.723484
286.481659	1094.802368	7309.464355	2690.419434	25.675041
286.856781	1091.490112	7380.248047	2702.915771	25.623911
287.231934	1093.942017	7436.878418	2712.723389	25.521009
287.607025	1097.254272	7468.667480	2719.562988	25.462307
287.982056	1100.114868	7471.699707	2717.003418	25.376553
288.357086	1103.577637	7457.009766	2707.797852	25.249662
288.732086	1104.201294	7427.049805	2698.786133	25.219406
289.107025	1104.373413	7399.476563	2687.236084	25.144348
289.481934	1106.137085	7369.988770	2674.374512	25.036312
289.856842	1104.395020	7367.579590	2671.578369	25.022148
290.231659	1103.276611	7383.409668	2672.438721	24.986130
290.606506	1102.717407	7399.583984	2672.546143	24.930315
290.981262	1104.029419	7420.532715	2679.837402	24.947474
291.355988	1103.341064	7460.408203	2691.860352	24.988241
291.730713	1101.276245	7499.531250	2699.194336	24.974279
292.105377	1100.996582	7523.040527	2708.034180	25.023771
292.480011	1102.115112	7531.126953	2717.562500	25.127460
292.854614	1101.340698	7544.418945	2725.434082	25.206793
293.229187	1102.093628	7573.949707	2739.135010	25.294775
293.603729	1104.115356	7617.632324	2759.352539	25.412342
293.978241	1103.771240	7652.840332	2779.677490	25.589991
294.352692	1101.964478	7681.683105	2798.432617	25.783293
294.727081	1101.061035	7708.525391	2823.209961	26.063688
295.101501	1098.609253	7761.865234	2850.181152	26.287027
295.475830	1095.512085	7848.133301	2887.131836	26.532211
295.850189	1095.038940	7991.893555	2944.300293	26.813112
296.224457	1091.683716	8203.381836	3015.621094	27.053135
296.598694	1089.403809	8463.350586	3101.739014	27.289799
296.972931	1089.016602	8729.597656	3190.954590	27.510185
297.347107	1088.586426	8935.946289	3270.254150	27.801296
297.721283	1087.898071	9061.037109	3320.733643	28.004471
298.095367	1089.769409	9098.051758	3345.016602	28.161434
298.469452	1092.737427	9080.931641	3357.340576	28.349373
298.843475	1092.199707	9037.636719	3356.802979	28.501934
299.217529	1094.587158	8972.337891	3350.264648	28.633522
299.591492	1096.436890	8892.672852	3332.197754	28.677439
299.965424	1098.135864	8774.442383	3306.775635	28.772165
300.339325	1102.179565	8594.958008	3263.695068	28.847986
300.713196	1103.513062	8374.263672	3209.300781	28.962452
301.087036	1105.448730	8138.126465	3148.648193	29.052937
301.460815	1104.975586	7937.585938	3087.823486	29.020357
301.834564	1103.771118	7774.533203	3042.419678	29.061874
302.208282	1103.125854	7649.119141	3005.791504	29.066111
302.582001	1103.297974	7531.814453	2972.647949	29.079025
302.955658	1103.297974	7423.306641	2943.310791	29.114086
303.329254	1100.889038	7332.241699	2922.534180	29.233543
303.702820	1101.276245	7248.747070	2907.629150	29.383677
304.076416	1100.910645	7176.007813	2887.067627	29.401291
304.449921	1099.491089	7122.452637	2869.796631	29.392611
304.823395	1099.749146	7062.165527	2849.622070	29.348385
305.196838	1099.426636	7003.878418	2830.823975	29.323593
305.570251	1097.921021	6932.858887	2812.477539	29.384314
305.943604	1096.479980	6870.485840	2796.991943	29.451164
306.316986	1096.350952	6825.146973	2785.700195	29.488731
306.690277	1094.759399	6800.218750	2774.881592	29.447622
307.063507	1094.200073	6800.971680	2772.558594	29.409948
307.436768	1095.038940	6830.372070	2774.085693	29.275488
307.809937	1092.328979	6880.078125	2782.086670	29.195421
308.183136	1093.081665	6951.484375	2796.948975	29.084162
308.556244	1091.640747	7039.259277	2821.338867	29.082195
308.929321	1092.802002	7145.702637	2846.890381	28.979303
309.302399	1091.963379	7244.488770	2874.872070	28.978485
309.675446	1093.597778	7353.104492	2902.832764	28.903795
310.048401	1095.167969	7449.568359	2931.352051	28.896261
310.421356	1093.662354	7553.624512	2959.872070	28.888866
310.794281	1094.049438	7670.606445	2989.101318	28.815258
311.167145	1096.264771	7784.168945	3021.385010	28.785105
311.539978	1100.437378	7864.242676	3044.377197	28.740328
311.912781	1102.588135	7910.098145	3056.142090	28.697042
312.285553	1101.147095	7899.667480	3055.840820	28.751751
312.658295	1102.308472	7851.940430	3041.129150	28.724836
313.031006	1101.254639	7786.728027	3028.052979	28.820671
313.403656	1101.792358	7728.354980	3010.437500	28.802944
313.776276	1101.663208	7684.435547	2997.855469	28.805374
314.148865	1102.029053	7688.415527	2991.316650	28.684736
314.521454	1105.040161	7694.351563	2989.037354	28.591715
314.893982	1103.147583	7677.596680	2987.338135	28.659292
315.266449	1101.018311	7620.212891	2966.152588	28.609890
315.638885	1095.899292	7539.772949	2945.117920	28.697313
316.011322	1094.544189	7452.429199	2921.286865	28.731924
316.383667	1094.759277	7385.065430	2901.198242	28.717823
316.756042	1094.458130	7327.316895	2885.303711	28.732330
317.128326	1094.049561	7277.848145	2865.279541	28.643072
317.500610	1094.329102	7220.959473	2847.772217	28.620024
317.872833	1094.157104	7145.443848	2826.113525	28.621292
318.245087	1094.608643	7047.453613	2795.980713	28.580824
318.617218	1093.468872	6948.925293	2771.913086	28.664618
