Jaz Data File
++++++++++++++++++++++++++++++++++++
Date: Thu Dec 19 19:56:39 2019
User: jaz
Dark Spectrum Present: Yes
Reference Spectrum Present: Yes
Processed Spectrum Present: Yes
Spectrometers: JAZA2928
Integration Time (usec): 32200 (JAZA2928)
Spectra Averaged: 10 (JAZA2928)
Boxcar Smoothing: 5 (JAZA2928)
Correct for Electrical Dark: No (JAZA2928)
Strobe/Lamp Enabled: Yes (JAZA2928)
Correct for Detector Non-linearity: No (JAZA2928)
Correct for Stray Light: No (JAZA2928)
Number of Pixels in Processed Spectrum: 2048
>>>>>Begin Processed Spectral Data<<<<<
W	D	R	S	P
190.104553	0.000000	0.000000	0.000000	0.000000
190.488098	0.000000	0.000000	0.000000	0.000000
190.871613	1222.216064	1221.506226	1214.408447	1099.914063
191.255096	1238.540649	1233.335571	1236.411377	40.907600
191.638535	0.000000	0.000000	0.000000	0.000000
192.021942	1036.773560	1030.450195	1018.384338	290.813873
192.405334	1155.648560	1147.669067	1135.108521	257.410339
192.788696	1274.652466	1262.909058	1250.520630	205.492615
193.172012	1281.298462	1269.963745	1256.521362	218.594788
193.555313	1285.621704	1275.921387	1261.253052	251.214996
193.938568	1287.686401	1279.212036	1266.909668	245.171555
194.321793	1290.460938	1281.040405	1269.942261	217.808044
194.704987	1289.019897	1284.245117	1272.716919	341.439331
195.088150	1289.234985	1288.267090	1277.190552	1244.394043
195.471298	1289.493042	1288.654419	1279.728516	1164.352295
195.854401	1289.772705	1286.008911	1282.223389	200.577301
196.237457	1290.568481	1284.460205	1283.427856	116.900818
196.620499	1288.439331	1282.847168	1281.233887	128.848969
197.003494	1284.438721	1283.922485	1279.577881	941.593750
197.386475	1282.524536	1283.363403	1277.986328	-540.992432
197.769424	1281.212402	1279.771484	1274.889160	438.834290
198.152344	1276.953857	1280.287720	1272.179199	-143.217026
198.535217	1276.007568	1284.933472	1271.555298	-49.880337
198.918076	1276.867920	1284.051636	1270.028320	-95.209778
199.300903	1277.900269	1285.406616	1267.705444	-135.816040
199.683670	1277.362671	1288.159668	1268.178589	-85.061447
200.066422	1276.029175	1290.396362	1265.511597	-73.205544
200.449142	1272.996338	1293.257080	1264.500854	-41.930759
200.831848	1272.308105	1295.923950	1264.995483	-30.964897
201.214508	1273.082520	1297.494019	1266.135376	-28.458488
201.597137	1270.372437	1297.322144	1265.963379	-16.360317
201.979736	1270.437012	1300.462280	1266.458130	-13.251778
202.362274	1269.383057	1301.989380	1267.727051	-5.078787
202.744827	1266.500977	1300.075073	1266.199951	-0.896600
203.127319	1266.672974	1301.387085	1264.930786	-5.018672
203.509796	1265.511597	1299.752441	1264.242676	-3.705869
203.892227	1264.479126	1296.504761	1262.220825	-7.051541
204.274643	1262.263794	1295.128174	1258.994629	-9.947442
204.657013	1263.597534	1293.515137	1257.768677	-19.483036
205.039352	1263.640503	1292.095581	1256.628784	-24.641361
205.421661	1264.092163	1289.751221	1256.521362	-29.505373
205.803940	1264.909424	1291.364380	1256.134155	-33.170605
206.186188	1265.898804	1292.547241	1256.585815	-34.947598
206.568405	1264.973755	1292.353638	1254.757690	-37.312302
206.950592	1264.758911	1290.504028	1255.510376	-35.923454
207.332748	1262.328491	1288.654297	1256.800903	-20.996841
207.714859	1261.661621	1287.793945	1259.166748	-9.547077
208.096939	1260.478760	1288.116577	1259.661377	-2.957480
208.478989	1260.220581	1289.772583	1260.177612	-0.145400
208.861008	1258.392456	1290.697388	1261.231567	8.788477
209.243011	1256.542847	1291.041504	1260.242065	10.722791
209.624969	1254.563965	1292.740723	1258.048462	9.127274
210.006897	1256.112671	1290.503906	1257.639771	4.440374
210.388794	1252.155273	1290.288940	1257.983887	15.284691
210.770645	1254.585693	1292.611816	1260.070190	14.422972
211.152481	1253.273560	1292.353638	1261.296143	20.528574
211.534286	1252.133789	1291.041626	1261.231567	23.382895
211.916061	1251.208862	1291.536255	1258.263550	17.493538
212.297791	1251.488403	1293.773193	1258.069946	15.564800
212.679489	1250.240967	1292.418213	1258.779785	20.245083
213.061157	1249.832275	1292.224731	1259.532471	22.881891
213.442795	1248.907471	1290.891113	1261.683350	30.430611
213.824402	1249.208618	1290.891113	1262.371582	31.579117
214.205963	1249.251587	1292.998901	1263.167358	31.809431
214.587524	1250.778687	1292.697754	1262.328369	27.552338
214.969025	1250.004395	1290.955688	1259.037720	22.058704
215.350510	1251.638916	1293.730347	1256.048218	10.475533
215.731949	1254.628540	1297.343628	1254.241455	-0.906202
216.113358	1253.961792	1301.021484	1255.209351	2.651013
216.494736	1254.542603	1302.505493	1255.424438	1.838580
216.876083	1258.156006	1306.893066	1255.424438	-5.604703
217.257401	1258.543091	1309.237427	1254.349121	-8.273054
217.638702	1260.457275	1314.420898	1252.069214	-15.543919
218.019943	1260.607910	1316.421265	1253.144653	-13.371812
218.401169	1260.048706	1319.152710	1253.768433	-10.625800
218.782349	1262.521973	1321.927246	1251.595947	-18.392349
219.163498	1263.059692	1323.755371	1255.058716	-13.182119
219.544632	1262.479004	1325.282593	1258.715088	-5.993155
219.925705	1262.070313	1328.229248	1260.758301	-1.983121
220.306778	1261.704712	1329.971313	1263.059692	1.984837
220.687805	1260.328247	1330.100464	1264.350220	5.764433
221.068802	1259.102417	1331.304810	1265.705200	9.144826
221.449738	1259.575439	1335.176270	1267.985107	11.123777
221.830673	1260.844482	1340.144653	1273.727661	16.246092
222.211563	1260.564819	1345.908691	1276.523804	18.699625
222.592438	1260.005615	1350.704956	1278.136841	19.990471
222.973267	1257.661133	1356.189453	1282.309448	25.016478
223.354065	1257.489136	1360.684570	1283.836426	25.531448
223.734848	1257.983765	1367.545776	1287.084229	26.560724
224.115555	1257.058838	1371.632324	1290.676025	29.341158
224.496262	1259.274292	1378.923584	1290.955566	26.478447
224.876923	1259.166748	1387.118164	1292.762329	26.256514
225.257568	1258.413940	1396.839844	1295.730347	26.957676
225.638168	1257.467651	1405.399902	1299.386719	28.336666
226.018723	1255.510376	1415.358154	1301.128906	28.538733
226.399277	1256.671875	1429.618042	1304.978882	27.931816
226.779785	1256.284668	1448.308594	1309.237427	27.576126
227.160263	1256.564331	1469.364868	1315.646729	27.764214
227.540695	1255.811523	1498.056519	1323.970459	28.136364
227.921112	1255.682495	1535.050659	1331.928467	27.292292
228.301483	1256.327637	1587.142944	1345.994629	27.104849
228.681824	1255.940552	1654.613770	1369.094482	28.382627
229.062134	1257.187988	1742.345215	1395.033203	28.412483
229.442413	1256.822388	1835.195313	1424.047363	28.913002
229.822647	1256.736450	1917.162231	1447.061035	28.818466
230.202881	1256.370850	1976.868774	1463.321167	28.723236
230.583054	1255.919067	2022.057129	1477.451904	28.915524
230.963196	1257.231079	2059.610352	1490.313599	29.048922
231.343292	1256.671875	2089.786133	1502.573364	29.515938
231.723404	1257.381592	2115.445068	1509.111694	29.337002
232.103439	1258.865601	2118.628174	1510.294800	29.244026
232.483459	1259.683105	2104.992188	1504.788696	28.995974
232.863434	1258.586060	2070.450195	1489.560913	28.449940
233.243393	1258.285034	2015.389771	1472.354492	28.274748
233.623306	1259.682983	1957.339478	1454.416748	27.912558
234.003174	1262.436035	1916.216064	1442.092651	27.479673
234.383041	1264.672852	1894.191772	1436.436035	27.284832
234.762848	1262.823120	1883.179688	1434.070190	27.604620
235.142639	1262.758667	1874.318359	1431.381714	27.572622
235.522385	1263.877075	1869.134888	1424.628174	26.559113
235.902115	1263.984619	1861.284424	1419.423340	26.023567
236.281799	1261.790894	1867.285156	1420.993286	26.292965
236.661438	1260.521851	1877.587524	1422.821411	26.301830
237.041077	1259.962646	1886.642456	1428.306030	26.862743
237.420654	1258.521606	1899.052368	1430.542847	26.856047
237.800217	1259.618530	1908.171875	1430.306274	26.318228
238.179733	1258.392456	1913.032715	1429.123413	26.080118
238.559219	1255.639526	1920.151855	1429.489014	26.161966
238.938690	1257.015991	1925.270630	1429.015747	25.738655
239.318100	1257.059082	1934.110840	1429.790161	25.512241
239.697510	1257.037476	1949.876099	1437.317871	26.020546
240.076859	1259.962524	1975.535156	1447.598755	26.221828
240.456177	1263.360840	2010.206177	1454.330811	25.570217
240.835464	1266.350464	2052.361816	1466.934570	25.519238
241.214722	1268.243286	2118.499023	1483.216064	25.283308
241.593948	1271.835083	2203.584961	1507.132935	25.253328
241.973129	1272.007080	2313.103760	1536.427002	25.398211
242.352295	1273.104004	2449.937988	1572.667969	25.455074
242.731415	1274.028809	2594.773438	1611.984497	25.588268
243.110519	1276.136597	2738.920410	1647.451538	25.384130
243.489578	1279.879028	2854.095703	1675.411987	25.125700
243.868607	1280.524292	2936.471680	1694.769043	25.015574
244.247604	1278.610107	2992.048340	1707.394409	25.024790
244.626541	1278.545654	3030.138916	1718.514160	25.118189
245.005493	1277.706665	3060.357910	1722.234741	24.936346
245.384369	1278.093872	3082.252930	1727.418335	24.904924
245.763229	1277.039917	3105.395264	1732.063965	24.887068
246.142059	1276.695801	3143.271240	1741.248047	24.887943
246.520859	1278.373413	3211.688232	1759.766357	24.899874
246.899612	1283.535278	3337.144531	1786.758911	24.504351
247.278336	1285.127075	3500.261475	1830.678467	24.628366
247.657043	1286.783081	3670.949219	1876.296997	24.726212
248.035690	1292.074097	3825.097412	1913.291016	24.524721
248.414322	1294.633545	3956.468994	1944.520630	24.414999
248.792908	1296.332642	4057.556885	1970.029175	24.398474
249.171478	1296.440308	4134.491211	1992.117920	24.512514
249.550003	1297.472656	4170.065430	1999.000366	24.421412
249.928482	1299.150269	4163.354980	1994.462158	24.275915
250.306961	1300.655762	4105.949707	1977.449341	24.125586
250.685364	1299.193237	3984.687500	1943.488159	23.991671
251.063782	1295.364746	3801.374268	1898.730103	24.076738
251.442123	1292.891357	3596.402344	1845.260986	23.979465
251.820450	1288.761841	3427.220215	1798.975830	23.858961
252.198761	1285.148438	3321.271729	1771.961670	23.908829
252.576996	1283.771973	3252.962402	1757.508179	24.057409
252.955246	1284.266724	3202.784180	1746.711060	24.104256
253.333420	1282.395508	3155.960938	1734.279297	24.118923
253.711578	1282.094360	3120.386719	1728.601074	24.289211
254.089706	1281.234009	3094.641602	1723.761841	24.403109
254.467804	1278.696167	3074.488281	1719.869019	24.567034
254.845871	1278.954224	3059.067383	1715.201904	24.506739
255.223877	1279.362915	3035.322754	1710.061401	24.527809
255.601898	1279.986572	3003.275635	1700.619263	24.408714
255.979828	1278.072266	2957.786133	1691.026611	24.584803
256.357727	1275.921509	2903.155518	1675.906616	24.580675
256.735657	1277.986328	2861.386719	1660.958496	24.186691
257.113525	1275.469849	2853.579346	1656.893433	24.169653
257.491333	1275.814087	2883.432617	1663.991089	24.146090
257.869110	1277.921875	2942.601318	1675.218262	23.866240
258.246887	1279.448975	3030.805664	1696.876953	23.834549
258.624573	1278.932617	3157.036133	1727.934448	23.907192
259.002289	1279.792969	3341.295898	1773.682007	23.957718
259.379944	1281.255493	3600.080322	1835.065918	23.883238
259.757538	1282.567505	3934.035400	1911.785156	23.730919
260.135162	1288.331665	4299.199219	1998.634766	23.591309
260.512665	1292.977417	4625.433105	2079.117920	23.590427
260.890228	1291.622437	4865.914551	2138.544678	23.694826
261.267700	1292.805298	5017.804199	2172.010986	23.602844
261.645142	1295.235718	5103.686035	2190.206787	23.499613
262.022552	1294.805542	5155.219238	2202.681396	23.517580
262.399994	1293.084839	5181.330078	2207.950928	23.529022
262.777313	1296.268066	5170.166992	2203.133057	23.409618
263.154602	1296.010010	5093.103516	2182.700684	23.351826
263.531921	1295.536865	4939.601074	2144.050781	23.284822
263.909149	1293.988281	4691.892578	2084.279785	23.258204
264.286377	1290.611450	4405.685547	2013.969971	23.221230
264.663574	1287.385254	4147.826172	1951.553589	23.219090
265.040710	1289.364136	3970.470947	1908.731201	23.101170
265.417816	1288.245605	3871.103271	1885.846558	23.137199
265.794891	1288.611206	3844.691650	1878.834839	23.090963
266.171936	1288.976929	3865.167236	1880.275879	22.952456
266.548950	1289.170532	3915.560791	1886.448853	22.741417
266.925934	1287.621948	3973.847412	1894.041138	22.575140
267.302887	1286.912231	4037.941162	1905.935059	22.501503
267.679810	1286.202515	4101.884766	1918.667969	22.462246
268.056671	1288.869385	4178.711426	1935.874512	22.388945
268.433502	1289.901733	4260.613770	1953.231323	22.328978
268.810333	1290.138184	4344.064453	1967.770752	22.188898
269.187073	1288.159546	4420.568848	1982.546875	22.167835
269.563843	1291.127808	4495.244629	1995.580566	21.985865
269.940521	1290.525513	4550.649414	2006.721802	21.968376
270.317200	1290.826538	4602.333496	2018.787842	21.982780
270.693848	1291.837402	4668.664063	2035.822266	22.032072
271.070435	1295.063599	4802.809570	2068.148682	22.039368
271.447021	1298.569458	4975.347168	2109.035400	22.042831
271.823547	1300.892456	5153.003418	2148.373535	22.000433
272.200043	1301.236450	5297.623535	2178.571045	21.953194
272.576538	1301.731201	5417.380371	2201.756592	21.868368
272.952972	1303.602417	5524.404297	2224.619629	21.820908
273.329346	1305.452026	5626.266602	2246.063232	21.769304
273.705688	1305.495117	5704.082520	2263.355713	21.776550
274.082062	1306.118896	5763.487793	2274.109619	21.716639
274.458344	1304.914429	5788.759766	2276.948730	21.678587
274.834595	1307.861206	5770.413574	2269.011963	21.538139
275.210846	1304.936035	5690.102051	2251.934814	21.595507
275.587006	1301.774292	5586.046387	2225.931641	21.570930
275.963165	1300.913818	5493.390137	2204.380615	21.549717
276.339294	1300.182495	5446.760742	2193.497803	21.543434
276.715393	1300.763184	5423.337891	2191.561768	21.607822
277.091461	1301.064331	5414.713867	2188.658203	21.576799
277.467438	1302.591553	5411.982422	2189.239014	21.576130
277.843445	1302.526978	5416.176270	2188.658447	21.541248
278.219452	1303.602417	5431.188965	2190.378662	21.484135
278.595337	1304.226196	5454.288574	2194.658691	21.455881
278.971191	1304.570313	5486.980957	2202.057617	21.458612
279.347046	1307.344849	5512.983887	2205.240967	21.349813
279.722870	1309.753784	5537.567871	2207.649902	21.237835
280.098663	1310.377441	5561.312988	2212.403076	21.219461
280.474396	1310.979614	5597.123535	2219.285645	21.191683
280.850098	1312.055054	5649.495605	2227.652344	21.109161
281.225800	1313.108887	5724.945801	2242.492920	21.065693
281.601440	1313.517578	5833.131348	2259.677734	20.934536
281.977051	1313.797119	5982.203613	2289.788818	20.906315
282.352600	1314.700439	6137.964355	2322.373535	20.891935
282.728149	1317.496582	6282.090332	2350.764160	20.812731
283.103668	1317.475098	6392.448242	2371.670166	20.772427
283.479156	1319.604370	6480.501953	2387.973389	20.701225
283.854553	1319.668945	6564.039551	2404.190430	20.679726
284.229950	1320.851929	6661.018555	2420.923584	20.599951
284.605347	1322.895142	6765.247070	2437.742920	20.484669
284.980652	1320.787354	6863.861328	2456.218262	20.483776
285.355988	1320.916382	6953.184570	2473.080566	20.456488
285.731201	1319.260254	7031.666992	2491.469971	20.520418
286.106445	1319.776489	7098.621582	2502.804443	20.471703
286.481659	1320.228027	7166.027832	2514.956543	20.437384
286.856781	1320.464722	7232.853516	2529.732666	20.453119
287.231934	1318.894653	7298.947266	2541.218018	20.440010
287.607025	1316.464233	7346.716797	2549.133057	20.441414
287.982056	1316.894409	7365.557617	2552.810791	20.432884
288.357086	1315.732910	7357.599609	2548.014648	20.395712
288.732086	1311.667969	7326.048340	2542.745117	20.468895
289.107025	1310.850708	7290.688965	2535.066650	20.472391
289.481934	1310.571045	7261.221680	2527.625000	20.452454
289.856842	1311.818359	7236.639160	2522.269531	20.430174
290.231659	1311.022583	7237.713867	2522.764160	20.445498
290.606506	1311.689331	7248.296387	2523.000977	20.404108
290.981262	1312.184082	7264.535645	2523.301758	20.346878
291.355988	1309.947144	7285.590820	2529.345459	20.406141
291.730713	1311.646362	7312.411133	2538.034912	20.437204
292.105377	1310.377319	7339.360840	2542.895508	20.443218
292.480011	1310.484985	7357.492188	2546.788330	20.444880
292.854614	1312.549683	7364.181152	2549.950195	20.447388
293.229187	1313.861694	7380.162109	2550.122314	20.379152
293.603729	1313.517578	7405.820801	2557.263184	20.415031
293.978241	1312.506714	7443.051270	2566.339600	20.452227
294.352692	1314.033691	7473.033203	2574.964355	20.472979
294.727081	1313.603638	7494.950195	2587.869385	20.614695
295.101501	1311.560425	7516.952637	2600.128662	20.765299
295.475830	1314.722168	7571.195801	2617.184570	20.817835
295.850189	1317.367676	7669.617676	2641.402588	20.843557
296.224457	1320.572266	7832.454590	2683.343018	20.927448
296.598694	1323.067261	8046.718262	2738.016602	21.044361
296.972931	1324.938354	8301.458984	2796.131348	21.087776
297.347107	1326.938599	8538.541016	2855.063477	21.189810
297.721283	1328.874390	8714.519531	2896.208252	21.221354
298.095367	1331.175781	8806.853516	2917.522705	21.220108
298.469452	1331.648926	8820.446289	2927.975586	21.316195
298.843475	1328.057129	8795.217773	2921.480225	21.339077
299.217529	1329.046387	8756.138672	2912.790771	21.323881
299.591492	1328.444214	8698.583984	2900.832520	21.334579
299.965424	1325.196533	8618.014648	2884.980957	21.387951
300.339325	1323.841553	8485.374023	2857.837891	21.419947
300.713196	1320.120605	8301.758789	2817.983398	21.454317
301.087036	1318.830078	8080.785645	2772.816650	21.502457
301.460815	1318.313965	7865.405762	2730.488770	21.569498
301.834564	1318.830200	7684.758301	2694.549072	21.610657
302.208282	1315.969482	7537.729980	2662.802979	21.647144
302.582001	1314.270386	7416.811035	2633.294189	21.614340
302.955658	1316.012573	7311.185547	2609.484863	21.575230
303.329254	1312.506714	7221.174805	2588.858643	21.601349
303.702820	1310.958130	7142.068359	2569.738037	21.587311
304.076416	1310.807495	7075.995117	2553.542236	21.555843
304.449921	1307.430786	7021.515137	2536.980957	21.517885
304.823395	1309.603027	6969.917480	2523.452393	21.444910
305.196838	1308.527588	6920.384277	2508.052734	21.374836
305.570251	1308.183594	6865.559570	2487.663086	21.223677
305.943604	1304.828369	6805.509766	2469.854492	21.179668
306.316986	1304.312256	6761.246582	2456.261475	21.109823
306.690277	1306.420044	6728.404297	2442.668457	20.956320
307.063507	1305.581177	6712.079590	2438.366943	20.952299
307.436768	1305.989746	6721.134277	2436.538330	20.877533
307.809937	1307.258789	6748.900391	2442.323975	20.858875
308.183136	1308.011597	6803.165527	2451.787354	20.814262
308.556244	1310.054810	6877.411133	2464.176025	20.730148
308.929321	1309.172974	6967.895508	2479.511475	20.682026
309.302399	1310.226929	7060.530762	2495.534912	20.612963
309.675446	1309.043945	7157.489258	2516.548340	20.646587
310.048401	1308.054565	7253.113770	2536.959229	20.671024
310.421356	1309.237427	7348.910645	2555.090576	20.627823
310.794281	1307.839355	7451.095215	2579.824951	20.705399
311.167145	1308.248047	7564.163574	2603.784912	20.708988
311.539978	1312.119507	7661.917480	2623.873535	20.658201
311.912781	1313.324097	7733.152832	2634.283447	20.576241
312.285553	1312.012207	7749.498047	2634.154297	20.538176
312.658295	1312.399292	7722.591797	2627.680420	20.518591
313.031006	1312.227295	7670.456055	2616.646729	20.515453
313.403656	1311.839966	7615.524902	2604.516113	20.506674
313.776276	1313.603638	7565.497070	2588.922852	20.398928
314.148865	1316.313599	7539.773438	2577.824463	20.270250
314.521454	1316.442627	7537.837402	2577.824463	20.274904
314.893982	1316.958862	7538.117188	2573.372314	20.195812
315.266449	1319.109619	7502.563965	2560.317139	20.073046
315.638885	1316.851440	7438.685547	2543.842041	20.042860
316.011322	1317.281494	7355.319824	2526.399170	20.025009
316.383667	1318.270752	7282.773438	2507.923828	19.945553
316.756042	1318.722534	7224.507813	2493.083252	19.884922
317.128326	1319.754883	7172.802734	2478.436279	19.796206
317.500610	1316.872803	7118.904297	2468.241455	19.844234
317.872833	1315.517700	7058.530762	2456.046143	19.859409
318.245087	1312.592651	6980.606445	2440.302490	19.896032
