Jaz Data File
++++++++++++++++++++++++++++++++++++
Date: Mon Apr 22 19:26:36 2019
User: jaz
Dark Spectrum Present: Yes
Reference Spectrum Present: Yes
Processed Spectrum Present: Yes
Spectrometers: JAZA2928
Integration Time (usec): 40000 (JAZA2928)
Spectra Averaged: 10 (JAZA2928)
Boxcar Smoothing: 5 (JAZA2928)
Correct for Electrical Dark: No (JAZA2928)
Strobe/Lamp Enabled: Yes (JAZA2928)
Correct for Detector Non-linearity: No (JAZA2928)
Correct for Stray Light: No (JAZA2928)
Number of Pixels in Processed Spectrum: 2048
>>>>>Begin Processed Spectral Data<<<<<
W	D	R	S	P
190.104553	0.000000	0.000000	0.000000	0.000000
190.488098	0.000000	0.000000	0.000000	0.000000
190.871613	1077.423828	1084.994751	1051.162476	-346.871216
191.255096	1080.499390	1079.079956	1060.152954	1433.419312
191.638535	0.000000	0.000000	0.000000	0.000000
192.021942	903.294739	908.865295	900.154480	-56.372440
192.405334	1004.317993	1010.039124	1001.478882	-49.625008
192.788696	1107.599609	1112.288330	1102.889282	-100.460815
193.172012	1111.471069	1116.052246	1109.449341	-44.131207
193.555313	1116.138306	1118.654663	1116.869507	29.057922
193.938568	1122.375488	1122.956299	1119.235474	-540.626343
194.321793	1125.386597	1126.505127	1121.493774	-348.030121
194.704987	1126.655640	1129.473267	1124.913574	-61.827396
195.088150	1127.429810	1129.387207	1123.967285	-176.894287
195.471298	1126.505249	1131.710083	1126.526611	0.410432
195.854401	1127.494629	1132.054199	1125.816895	-36.795887
196.237457	1129.064575	1128.957031	1125.279175	3519.863770
196.620499	1129.043091	1130.441040	1126.741699	-164.626266
197.003494	1127.171875	1130.140137	1126.182495	-33.331963
197.386475	1126.999878	1131.129395	1126.118042	-21.354460
197.769424	1126.419067	1132.441406	1123.408081	-49.996960
198.152344	1123.365112	1134.527832	1122.848755	-4.625731
198.535217	1120.934570	1135.947266	1122.332764	9.313407
198.918076	1121.149658	1138.098022	1120.267822	-5.203074
199.300903	1121.838013	1139.668091	1121.192871	-3.618277
199.683670	1123.838257	1144.421387	1121.601440	-10.867231
200.066422	1123.730591	1145.023560	1122.139160	-7.473973
200.449142	1121.967041	1147.884277	1121.923950	-0.166263
200.831848	1122.719849	1149.174683	1123.020874	1.137884
201.214508	1123.537109	1149.002686	1123.429565	-0.422311
201.597137	1122.891846	1150.120972	1125.472778	9.478573
201.979736	1122.612183	1152.874146	1125.236206	8.671028
202.362274	1122.633789	1149.088623	1126.526611	14.714975
202.744827	1121.257202	1147.625977	1125.515747	16.149954
203.127319	1119.171021	1146.055908	1128.612915	35.119709
203.509796	1116.525513	1142.786621	1128.376465	45.127388
203.892227	1113.406860	1136.872070	1124.547974	47.479282
204.274643	1110.567749	1137.151489	1126.311646	59.223782
204.657013	1110.804321	1134.850342	1126.483643	65.205475
205.039352	1108.223389	1132.441406	1121.106567	53.196671
205.421661	1104.932617	1135.796753	1121.300171	53.030979
205.803940	1103.964722	1135.516968	1116.675903	40.286140
206.186188	1103.771118	1133.344727	1117.256714	45.600101
206.568405	1101.921387	1134.248169	1114.396118	38.589462
206.950592	1103.297974	1136.119263	1115.148926	36.107517
207.332748	1101.340698	1133.882446	1109.944092	26.438019
207.714859	1099.964233	1136.269775	1110.589355	29.265841
208.096939	1099.598511	1137.732422	1112.976685	35.082092
208.478989	1098.695190	1137.280762	1109.793579	28.763054
208.861008	1098.931763	1138.291626	1109.449341	26.721582
209.243011	1099.318848	1140.765137	1112.524902	31.863056
209.624969	1098.652222	1139.410034	1111.879639	32.453697
210.006897	1098.480103	1140.377808	1112.503418	33.470367
210.388794	1097.469238	1141.345703	1111.234375	31.372484
210.770645	1097.426270	1141.603882	1111.836792	32.619514
211.152481	1097.146606	1140.549927	1112.051880	34.341320
211.534286	1097.404785	1143.152344	1112.223755	32.392918
211.916061	1097.490723	1141.238159	1110.288208	29.253109
212.297791	1097.985474	1142.119995	1109.578369	26.267183
212.679489	1097.125122	1143.195435	1110.911987	29.925703
213.061157	1093.662354	1142.313599	1109.191284	31.918877
213.442795	1093.812988	1142.786743	1108.524536	30.039658
213.824402	1094.071167	1142.829712	1109.212769	31.054253
214.205963	1094.823730	1141.496216	1110.030151	32.581123
214.587524	1093.705444	1141.195190	1110.503174	35.371277
214.969025	1094.952881	1142.937378	1110.008545	31.376101
215.350510	1093.554932	1145.948486	1111.664673	34.564827
215.731949	1092.823730	1144.572021	1112.933472	38.860687
216.113358	1092.221558	1147.841309	1114.482056	40.022648
216.494736	1093.361328	1147.239014	1115.600708	41.277534
216.876083	1093.124878	1145.324707	1113.707886	39.431179
217.257401	1094.823975	1146.765747	1116.138428	41.035282
217.638702	1094.910034	1149.389771	1117.880493	42.163307
218.019943	1095.791748	1151.841553	1119.300049	41.941807
218.401169	1094.006592	1152.142700	1120.246460	45.135235
218.782349	1094.372070	1154.788208	1121.171265	44.357674
219.163498	1094.436646	1158.272583	1119.644043	39.487785
219.544632	1098.286621	1158.659668	1114.998413	27.680882
219.925705	1102.416138	1162.423584	1113.944458	19.211483
220.306778	1103.104370	1163.929199	1113.514404	17.114777
220.687805	1101.082520	1168.661011	1114.525269	19.892052
221.068802	1101.770996	1176.640503	1117.364258	20.827253
221.449738	1101.985840	1182.598145	1117.385742	19.103662
221.830673	1099.340454	1186.620117	1118.009521	21.389940
222.211563	1098.394043	1191.932617	1116.654419	19.521761
222.592438	1098.759766	1200.084106	1118.289185	19.274164
222.973267	1099.060913	1206.730225	1119.558105	19.037172
223.354065	1097.727417	1211.655518	1123.623047	22.729801
223.734848	1093.791382	1217.828369	1128.376343	27.882780
224.115555	1090.436157	1228.302734	1132.850098	30.764484
224.496262	1092.694458	1238.497559	1135.280518	29.207924
224.876923	1092.178223	1246.498535	1136.829224	28.933975
225.257568	1091.016846	1255.639526	1138.786377	29.017588
225.638168	1088.113281	1265.554688	1140.937134	29.769745
226.018723	1090.479248	1277.147583	1144.980591	29.196886
226.399277	1092.328735	1291.923462	1151.906250	29.849243
226.779785	1094.759277	1309.861206	1157.261719	29.057127
227.160263	1093.726929	1333.046875	1162.724731	28.830778
227.540695	1093.103149	1363.351685	1173.027100	29.574240
227.921112	1091.984741	1408.217529	1187.265381	30.129906
228.301483	1092.501099	1466.525879	1203.675903	29.723915
228.681824	1092.006348	1543.460083	1224.022583	29.242474
229.062134	1095.339966	1631.212891	1246.304932	28.171785
229.442413	1095.404419	1713.438232	1271.275879	28.456608
229.822647	1099.469604	1782.349976	1291.428833	28.110228
230.202881	1100.846069	1832.011841	1306.828613	28.171799
230.583054	1100.674072	1871.651245	1316.851440	28.039400
230.963196	1098.372681	1904.106934	1325.131958	28.143185
231.343292	1097.576782	1930.819946	1332.659790	28.213015
231.723404	1097.146606	1946.348755	1335.240723	28.037390
232.103439	1098.372681	1940.670654	1330.960571	27.613493
232.483459	1098.630737	1913.054321	1323.712402	27.636929
232.863434	1096.802612	1867.650757	1311.560303	27.859922
233.243393	1091.662109	1814.934814	1297.709106	28.488148
233.623306	1092.909668	1767.294434	1280.481201	27.813726
234.003174	1092.242920	1737.763672	1272.308105	27.894562
234.383041	1089.382324	1724.880371	1265.403931	27.698214
234.762848	1090.930786	1717.675293	1260.973389	27.131088
235.142639	1091.855591	1711.932495	1259.876465	27.096781
235.522385	1094.135498	1708.491089	1260.048706	27.006056
235.902115	1095.834839	1710.212036	1258.650635	26.500950
236.281799	1095.641113	1716.384766	1261.080933	26.651875
236.661438	1096.178833	1729.009888	1262.350098	26.258392
237.041077	1095.576660	1740.946899	1264.952515	26.244757
237.420654	1098.458618	1747.033569	1267.597900	26.078602
237.800217	1097.963989	1755.550659	1271.361816	26.368816
238.179733	1098.351074	1761.530029	1272.050171	26.191889
238.559219	1100.372925	1769.509644	1273.362183	25.852602
238.938690	1098.265137	1782.220703	1275.233276	25.874216
239.318100	1096.630493	1800.158325	1277.857300	25.759722
239.697510	1097.017578	1821.687988	1281.298584	25.429630
240.076859	1097.168091	1847.260986	1286.955200	25.301813
240.456177	1098.178955	1891.976440	1295.751953	24.889597
240.835464	1096.651855	1948.263184	1309.517090	24.995584
241.214722	1097.275757	2024.745728	1327.175171	24.787802
241.593948	1097.963989	2132.092285	1350.769409	24.446234
241.973129	1097.856567	2259.333740	1378.945068	24.200949
242.352295	1097.297363	2406.750000	1412.992310	24.108925
242.731415	1097.856323	2553.327148	1444.523071	23.818186
243.110519	1095.877686	2674.417480	1471.666260	23.806087
243.489578	1095.877686	2769.440186	1492.228027	23.683031
243.868607	1096.049805	2835.943115	1508.724609	23.718397
244.247604	1097.684448	2886.035156	1520.166870	23.624138
244.626541	1098.910278	2917.953125	1528.210938	23.600361
245.005493	1099.792114	2945.719727	1533.738647	23.508318
245.384369	1100.114868	2970.948975	1538.642456	23.440218
245.763229	1100.609497	2998.909180	1544.234375	23.369591
246.142059	1102.760254	3052.937500	1554.214111	23.149376
246.520859	1102.351685	3154.261475	1576.109375	23.088623
246.899612	1100.889038	3308.366943	1610.156372	23.070097
247.278336	1101.942993	3494.518799	1651.086304	22.951973
247.657043	1102.394653	3664.540039	1689.779297	22.925499
248.035690	1101.405273	3803.309570	1720.815552	22.924953
248.414322	1100.867676	3921.002197	1745.291504	22.850819
248.792908	1099.297607	4008.367432	1766.541382	22.936670
249.171478	1099.835205	4061.642822	1776.671753	22.852144
249.550003	1101.104126	4068.827148	1778.112793	22.812393
249.928482	1100.588013	4035.661621	1771.316284	22.852179
250.306961	1099.620117	3942.724854	1752.324585	22.957455
250.685364	1099.362061	3780.747803	1712.706909	22.874174
251.063782	1100.652466	3577.324951	1667.862549	22.902103
251.442123	1101.168701	3379.536865	1625.814331	23.027254
251.820450	1102.416138	3241.261963	1594.928833	23.027033
252.198761	1102.201050	3168.177490	1580.647339	23.158360
252.576996	1101.276245	3111.740479	1570.000854	23.314247
252.955246	1101.921509	3063.153809	1556.429321	23.174604
253.333420	1101.039673	3017.792969	1546.643066	23.247822
253.711578	1100.437500	2990.306152	1538.900391	23.200706
254.089706	1100.308472	2965.872803	1532.770630	23.181305
254.467804	1098.716675	2948.537354	1528.791504	23.249542
254.845871	1099.856567	2933.202148	1526.425659	23.267250
255.223877	1098.996338	2907.005371	1519.026978	23.231667
255.601898	1100.480347	2870.334229	1511.348511	23.214808
255.979828	1098.265137	2818.026367	1500.659058	23.398243
256.357727	1098.630737	2763.826172	1485.840088	23.253088
256.735657	1098.480225	2741.457764	1481.495483	23.312263
257.113525	1098.071411	2758.492432	1484.076416	23.247417
257.491333	1098.480347	2812.197754	1497.002686	23.254847
257.869110	1097.835083	2891.799072	1517.671875	23.402744
258.246887	1097.684448	3007.146729	1543.503052	23.347860
258.624573	1097.232788	3174.092285	1580.647339	23.276230
259.002289	1097.275757	3402.142090	1629.685669	23.099384
259.379944	1098.566284	3704.265625	1697.435913	22.983068
259.757538	1098.415649	4068.052490	1775.574585	22.802753
260.135162	1099.318970	4428.032715	1850.379639	22.563089
260.512665	1100.760010	4715.939453	1911.978638	22.439236
260.890228	1099.792114	4904.715332	1951.424561	22.382381
261.267700	1101.147095	5016.622070	1977.255859	22.375542
261.645142	1101.942871	5083.039063	1989.321777	22.289814
262.022552	1103.211914	5120.677734	1993.623413	22.163511
262.399994	1102.717285	5125.904297	1990.224976	22.059816
262.777313	1103.857178	5080.715820	1976.481201	21.942545
263.154602	1104.911011	4961.216309	1951.295288	21.948063
263.531921	1102.824707	4760.159180	1904.493774	21.919491
263.909149	1102.459106	4480.791504	1842.937866	21.918468
264.286377	1101.491333	4192.583984	1779.854980	21.945755
264.663574	1099.878174	3972.277100	1729.977783	21.936354
265.040710	1101.921509	3845.767090	1701.479614	21.851013
265.417816	1099.168457	3795.782227	1687.499512	21.817402
265.794891	1099.340576	3797.803955	1688.123169	21.819180
266.171936	1099.104004	3841.508057	1694.360474	21.705645
266.548950	1099.921265	3899.708740	1708.792236	21.747042
266.925934	1101.383789	3954.425049	1720.255981	21.691666
267.302887	1100.329834	4020.368896	1732.085571	21.635181
267.679810	1102.308594	4091.776367	1748.453247	21.614037
268.056671	1102.652710	4176.216797	1764.627075	21.537680
268.433502	1101.749512	4266.658203	1782.220825	21.500504
268.810333	1101.684814	4350.517578	1799.771484	21.487307
269.187073	1099.039429	4426.677734	1815.622925	21.534298
269.563843	1101.362305	4488.276855	1829.624512	21.502232
269.940521	1100.588013	4541.895996	1838.571899	21.444866
270.317200	1099.899780	4605.710449	1852.035645	21.453979
270.693848	1099.146973	4713.035645	1873.586792	21.429543
271.070435	1097.705933	4884.304199	1907.698730	21.391043
271.447021	1095.856323	5082.371582	1945.639038	21.316431
271.823547	1093.920532	5251.705078	1977.083862	21.241199
272.200043	1092.931152	5382.043457	2000.699585	21.164482
272.576538	1096.501465	5496.100098	2023.584106	21.071981
272.952972	1096.630493	5606.415527	2047.522583	21.085087
273.329346	1099.641602	5698.835449	2064.385010	20.976358
273.705688	1097.490723	5766.155762	2076.622803	20.972422
274.082062	1094.221558	5809.837891	2085.010986	21.010817
274.458344	1094.049438	5806.568848	2083.570068	20.997698
274.834595	1093.060059	5748.755371	2071.869629	21.023918
275.210846	1093.748413	5652.141113	2050.340088	20.985285
275.587006	1095.361572	5538.041016	2028.853638	21.011915
275.963165	1096.135864	5473.688965	2012.937622	20.943247
276.339294	1095.920898	5444.265625	2009.603882	21.012201
276.715393	1094.329224	5440.265137	2008.162964	21.027317
277.091461	1093.942017	5437.361816	2002.656616	20.921638
277.467438	1092.931152	5444.867676	2002.463379	20.899483
277.843445	1094.372192	5460.289551	2003.689331	20.827629
278.219452	1097.361816	5481.604004	2007.517700	20.759708
278.595337	1097.275757	5513.521484	2013.475342	20.746119
278.971191	1097.318726	5547.805664	2018.035034	20.687990
279.347046	1096.716553	5572.969727	2024.401489	20.724586
279.722870	1095.727051	5607.189453	2027.175903	20.646273
280.098663	1096.953125	5631.234863	2032.811035	20.639606
280.474396	1098.222168	5683.004883	2038.940918	20.518284
280.850098	1099.727539	5749.679688	2053.372803	20.508711
281.225800	1099.770630	5852.595703	2071.482666	20.444935
281.601440	1099.125488	5983.816895	2099.550537	20.480824
281.977051	1098.996338	6153.665527	2133.124512	20.458870
282.352600	1100.265503	6314.695801	2161.278564	20.347631
282.728149	1102.996948	6448.454590	2186.786865	20.274971
283.103668	1104.007935	6547.198242	2206.380615	20.252327
283.479156	1102.588379	6633.079590	2223.458008	20.267090
283.854553	1102.502319	6720.380859	2240.621338	20.258877
284.229950	1098.480347	6819.877930	2260.194092	20.304720
284.605347	1096.501587	6916.750000	2281.788086	20.364878
284.980652	1094.888428	7007.728516	2296.951172	20.329702
285.355988	1092.500977	7095.331055	2316.007568	20.382162
285.731201	1094.243042	7173.210938	2328.073486	20.296709
286.106445	1094.888428	7234.551758	2339.816650	20.276817
286.481659	1094.802368	7309.464355	2355.345459	20.283373
286.856781	1091.490112	7380.248047	2367.411865	20.288931
287.231934	1093.942017	7436.878418	2379.047607	20.260420
287.607025	1097.254272	7468.667480	2383.456787	20.187084
287.982056	1100.114868	7471.699707	2383.306152	20.139278
288.357086	1103.577637	7457.009766	2377.993408	20.058699
288.732086	1104.201294	7427.049805	2368.551270	19.996525
289.107025	1104.373413	7399.476563	2358.335449	19.919643
289.481934	1106.137085	7369.988770	2351.517334	19.882021
289.856842	1104.395020	7367.579590	2349.172852	19.874519
290.231659	1103.276611	7383.409668	2353.732666	19.911299
290.606506	1102.717407	7399.583984	2352.936768	19.854626
290.981262	1104.029419	7420.532715	2357.496582	19.844320
291.355988	1103.341064	7460.408203	2361.711914	19.794832
291.730713	1101.276245	7499.531250	2371.476563	19.852293
292.105377	1100.996582	7523.040527	2380.638916	19.925779
292.480011	1102.115112	7531.126953	2388.446533	20.008230
292.854614	1101.340698	7544.418945	2401.286865	20.175856
293.229187	1102.093628	7573.949707	2419.697754	20.358984
293.603729	1104.115356	7617.632324	2440.152100	20.511757
293.978241	1103.771240	7652.840332	2461.358887	20.729475
294.352692	1101.964478	7681.683105	2480.952637	20.958162
294.727081	1101.061035	7708.525391	2512.031494	21.354189
295.101501	1098.609253	7761.865234	2546.078613	21.723154
295.475830	1095.512085	7848.133301	2588.599854	22.111233
295.850189	1095.038940	7991.893555	2642.499268	22.437189
296.224457	1091.683716	8203.381836	2709.196045	22.744389
296.598694	1089.403809	8463.350586	2791.786865	23.086456
296.972931	1089.016602	8729.597656	2874.915283	23.373859
297.347107	1088.586426	8935.946289	2947.569824	23.689285
297.721283	1087.898071	9061.037109	2998.199463	23.959213
298.095367	1089.769409	9098.051758	3030.547607	24.234638
298.469452	1092.737427	9080.931641	3047.754150	24.473825
298.843475	1092.199707	9037.636719	3054.722412	24.699997
299.217529	1094.587158	8972.337891	3057.153076	24.912769
299.591492	1096.436890	8892.672852	3050.399414	25.062897
299.965424	1098.135864	8774.442383	3034.182617	25.221071
300.339325	1102.179565	8594.958008	3005.060791	25.396204
300.713196	1103.513062	8374.263672	2960.452881	25.539864
301.087036	1105.448730	8138.126465	2911.909180	25.686666
301.460815	1104.975586	7937.585938	2868.979004	25.817415
301.834564	1103.771118	7774.533203	2834.716553	25.948240
302.208282	1103.125854	7649.119141	2805.917480	26.012732
302.582001	1103.297974	7531.814453	2779.656006	26.076902
302.955658	1103.297974	7423.306641	2755.954102	26.149586
303.329254	1100.889038	7332.241699	2733.435303	26.198908
303.702820	1101.276245	7248.747070	2715.798828	26.263201
304.076416	1100.910645	7176.007813	2698.377197	26.295324
304.449921	1099.491089	7122.452637	2686.612305	26.351177
304.823395	1099.749146	7062.165527	2673.879639	26.400881
305.196838	1099.426636	7003.878418	2657.554932	26.389044
305.570251	1097.921021	6932.858887	2637.724609	26.389374
305.943604	1096.479980	6870.485840	2619.055664	26.369486
306.316986	1096.350952	6825.146973	2608.839600	26.401510
306.690277	1094.759399	6800.218750	2601.075195	26.401306
307.063507	1094.200073	6800.971680	2600.709473	26.398628
307.436768	1095.038940	6830.372070	2606.495117	26.353416
307.809937	1092.328979	6880.078125	2618.582520	26.370417
308.183136	1093.081665	6951.484375	2634.692139	26.314518
308.556244	1091.640747	7039.259277	2655.468994	26.293350
308.929321	1092.802002	7145.702637	2679.794678	26.218714
309.302399	1091.963379	7244.488770	2705.045166	26.218206
309.675446	1093.597778	7353.104492	2732.726074	26.186220
310.048401	1095.167969	7449.568359	2760.406738	26.206072
310.421356	1093.662354	7553.624512	2789.227539	26.247293
310.794281	1094.049438	7670.606445	2816.822266	26.195663
311.167145	1096.264771	7784.168945	2844.072998	26.133871
311.539978	1100.437378	7864.242676	2864.290283	26.077820
311.912781	1102.588135	7910.098145	2873.345215	26.011818
312.285553	1101.147095	7899.667480	2873.259277	26.066145
312.658295	1102.308472	7851.940430	2860.139648	26.043364
313.031006	1101.254639	7786.728027	2842.825684	26.050077
313.403656	1101.792358	7728.354980	2822.844727	25.972023
313.776276	1101.663208	7684.435547	2809.251465	25.940260
314.148865	1102.029053	7688.415527	2806.326416	25.876060
314.521454	1105.040161	7694.351563	2801.809570	25.750330
314.893982	1103.147583	7677.596680	2797.808838	25.776474
315.266449	1101.018311	7620.212891	2782.344482	25.790398
315.638885	1095.899292	7539.772949	2759.739502	25.820498
316.011322	1094.544189	7452.429199	2738.597412	25.858494
316.383667	1094.759277	7385.065430	2720.057373	25.838140
316.756042	1094.458130	7327.316895	2704.012451	25.823692
317.128326	1094.049561	7277.848145	2691.042969	25.825443
317.500610	1094.329102	7220.959473	2679.170654	25.868078
317.872833	1094.157104	7145.443848	2661.146973	25.895151
318.245087	1094.608643	7047.453613	2637.789307	25.923416
318.617218	1093.468872	6948.925293	2616.431885	26.009296
