Jaz Data File
++++++++++++++++++++++++++++++++++++
Date: Thu Dec 19 19:56:33 2019
User: jaz
Dark Spectrum Present: Yes
Reference Spectrum Present: Yes
Processed Spectrum Present: Yes
Spectrometers: JAZA2928
Integration Time (usec): 32200 (JAZA2928)
Spectra Averaged: 10 (JAZA2928)
Boxcar Smoothing: 5 (JAZA2928)
Correct for Electrical Dark: No (JAZA2928)
Strobe/Lamp Enabled: Yes (JAZA2928)
Correct for Detector Non-linearity: No (JAZA2928)
Correct for Stray Light: No (JAZA2928)
Number of Pixels in Processed Spectrum: 2048
>>>>>Begin Processed Spectral Data<<<<<
W	D	R	S	P
190.104553	0.000000	0.000000	0.000000	0.000000
190.488098	0.000000	0.000000	0.000000	0.000000
190.871613	1222.216064	1221.506226	1227.184326	-699.914001
191.255096	1238.540649	1233.335571	1220.086670	354.537994
191.638535	0.000000	0.000000	0.000000	0.000000
192.021942	1036.773560	1030.450195	1026.191650	167.346191
192.405334	1155.648560	1147.669067	1142.077026	170.080154
192.788696	1274.652466	1262.909058	1260.027100	124.541069
193.172012	1281.298462	1269.963745	1265.877197	136.053375
193.555313	1285.621704	1275.921387	1272.480225	135.474731
193.938568	1287.686401	1279.212036	1271.706055	188.572784
194.321793	1290.460938	1281.040405	1276.222778	151.139648
194.704987	1289.019897	1284.245117	1276.803467	255.853256
195.088150	1289.234985	1288.267090	1278.352051	1124.391479
195.471298	1289.493042	1288.654419	1278.954224	1256.681274
195.854401	1289.772705	1286.008911	1279.341309	277.151093
196.237457	1290.568481	1284.460205	1279.599487	179.575928
196.620499	1288.439331	1282.847168	1279.147827	166.152237
197.003494	1284.438721	1283.922485	1275.878540	1658.193481
197.386475	1282.524536	1283.363403	1273.727783	-1048.646729
197.769424	1281.212402	1279.771484	1272.050171	635.860718
198.152344	1276.953857	1280.287720	1274.630981	-69.675224
198.535217	1276.007568	1284.933472	1273.319214	-30.118570
198.918076	1276.867920	1284.051636	1276.416260	-6.287278
199.300903	1277.900269	1285.406616	1274.437378	-46.132832
199.683670	1277.362671	1288.159668	1277.018433	-3.188278
200.066422	1276.029175	1290.396362	1277.233521	8.382613
200.449142	1272.996338	1293.257080	1275.233276	11.040752
200.831848	1272.308105	1295.923950	1275.512817	13.570177
201.214508	1273.082520	1297.494019	1277.556152	18.325924
201.597137	1270.372437	1297.322144	1278.717651	30.965883
201.979736	1270.437012	1300.462280	1277.599243	23.854013
202.362274	1269.383057	1301.989380	1276.803467	22.757580
202.744827	1266.500977	1300.075073	1274.416016	23.574839
203.127319	1266.672974	1301.387085	1270.523071	11.090872
203.509796	1265.511597	1299.752441	1270.415527	14.321874
203.892227	1264.479126	1296.504761	1267.382935	9.067139
204.274643	1262.263794	1295.128174	1267.662354	16.426781
204.657013	1263.597534	1293.515137	1267.554932	13.227655
205.039352	1263.640503	1292.095581	1267.296753	12.849200
205.421661	1264.092163	1289.751221	1265.382690	5.029520
205.803940	1264.909424	1291.364380	1261.640259	-12.357477
206.186188	1265.898804	1292.547241	1260.371216	-20.742634
206.568405	1264.973755	1292.353638	1258.285034	-24.429325
206.950592	1264.758911	1290.504028	1259.209839	-21.553883
207.332748	1262.328491	1288.654297	1257.940918	-16.666435
207.714859	1261.661621	1287.793945	1255.746948	-22.633551
208.096939	1260.478760	1288.116577	1254.650146	-21.089268
208.478989	1260.220581	1289.772583	1253.381104	-23.143871
208.861008	1258.392456	1290.697388	1252.972534	-16.777382
209.243011	1256.542847	1291.041504	1253.875854	-7.730713
209.624969	1254.563965	1292.740723	1252.800415	-4.619433
210.006897	1256.112671	1290.503906	1253.617676	-7.254741
210.388794	1252.155273	1290.288940	1254.542603	6.260424
210.770645	1254.585693	1292.611816	1256.693481	5.543000
211.152481	1253.273560	1292.353638	1257.295776	10.292244
211.534286	1252.133789	1291.041626	1259.898071	19.955574
211.916061	1251.208862	1291.536255	1260.199219	22.293423
212.297791	1251.488403	1293.773193	1261.081177	22.686110
212.679489	1250.240967	1292.418213	1261.016602	25.548454
213.061157	1249.832275	1292.224731	1261.833862	28.310667
213.442795	1248.907471	1290.891113	1258.543091	22.950891
213.824402	1249.208618	1290.891113	1259.166870	23.890730
214.205963	1249.251587	1292.998901	1259.295898	22.959835
214.587524	1250.778687	1292.697754	1258.865723	19.292023
214.969025	1250.004395	1290.955688	1259.769043	23.844542
215.350510	1251.638916	1293.730347	1259.381836	18.395477
215.731949	1254.628540	1297.343628	1260.070068	12.739124
216.113358	1253.961792	1301.021484	1261.037964	15.036588
216.494736	1254.542603	1302.505493	1263.317749	18.295700
216.876083	1258.156006	1306.893066	1265.533081	15.136479
217.257401	1258.543091	1309.237427	1265.361206	13.449462
217.638702	1260.457275	1314.420898	1266.522583	11.239623
218.019943	1260.607910	1316.421265	1265.834229	9.363921
218.401169	1260.048706	1319.152710	1265.447144	9.133793
218.782349	1262.521973	1321.927246	1267.425903	8.255043
219.163498	1263.059692	1323.755371	1265.640747	4.252452
219.544632	1262.479004	1325.282593	1266.931274	7.089198
219.925705	1262.070313	1328.229248	1268.995972	10.468214
220.306778	1261.704712	1329.971313	1269.813354	11.877906
220.687805	1260.328247	1330.100464	1268.759277	12.083650
221.068802	1259.102417	1331.304810	1267.812988	12.064103
221.449738	1259.575439	1335.176270	1271.039185	15.163518
221.830673	1260.844482	1340.144653	1273.061035	15.405456
222.211563	1260.564819	1345.908691	1276.416382	18.573755
222.592438	1260.005615	1350.704956	1280.696411	22.812510
222.973267	1257.661133	1356.189453	1280.674927	23.357542
223.354065	1257.489136	1360.684570	1283.040894	24.760551
223.734848	1257.983765	1367.545776	1282.266602	22.163555
224.115555	1257.058838	1371.632324	1284.460327	23.916082
224.496262	1259.274292	1378.923584	1286.525146	22.775608
224.876923	1259.166748	1387.118164	1290.417969	24.424286
225.257568	1258.413940	1396.839844	1293.213989	25.139839
225.638168	1257.467651	1405.399902	1294.633545	25.123590
226.018723	1255.510376	1415.358154	1298.419067	26.843472
226.399277	1256.671875	1429.618042	1304.140137	27.446842
226.779785	1256.284668	1448.308594	1309.086914	27.497744
227.160263	1256.564331	1469.364868	1317.668701	28.714388
227.540695	1255.811523	1498.056519	1328.508667	30.009760
227.921112	1255.682495	1535.050659	1342.445801	31.056976
228.301483	1256.327637	1587.142944	1357.157349	30.479155
228.681824	1255.940552	1654.613770	1381.289307	31.441479
229.062134	1257.187988	1742.345215	1408.690674	31.227543
229.442413	1256.822388	1835.195313	1437.747925	31.281813
229.822647	1256.736450	1917.162231	1465.988037	31.684345
230.202881	1256.370850	1976.868774	1486.313232	31.914371
230.583054	1255.919067	2022.057129	1497.712524	31.560038
230.963196	1257.231079	2059.610352	1509.090210	31.389038
231.343292	1256.671875	2089.786133	1519.328125	31.527039
231.723404	1257.381592	2115.445068	1525.049194	31.194382
232.103439	1258.865601	2118.628174	1525.952393	31.065180
232.483459	1259.683105	2104.992188	1519.693726	30.759237
232.863434	1258.586060	2070.450195	1504.078857	30.238163
233.243393	1258.285034	2015.389771	1485.022705	29.947992
233.623306	1259.682983	1957.339478	1466.912964	29.703728
234.003174	1262.436035	1916.216064	1452.201538	29.025894
234.383041	1264.672852	1894.191772	1443.168091	28.354229
234.762848	1262.823120	1883.179688	1440.286011	28.606594
235.142639	1262.758667	1874.318359	1438.328979	28.708614
235.522385	1263.877075	1869.134888	1434.091797	28.122681
235.902115	1263.984619	1861.284424	1433.683105	28.410940
236.281799	1261.790894	1867.285156	1434.199219	28.473982
236.661438	1260.521851	1877.587524	1436.952271	28.591839
237.041077	1259.962646	1886.642456	1442.608887	29.145065
237.420654	1258.521606	1899.052368	1445.340332	29.166239
237.800217	1259.618530	1908.171875	1447.813843	29.017708
238.179733	1258.392456	1913.032715	1447.878418	28.945051
238.559219	1255.639526	1920.151855	1450.244263	29.285347
238.938690	1257.015991	1925.270630	1452.093872	29.192148
239.318100	1257.059082	1934.110840	1453.707031	29.044744
239.697510	1257.037476	1949.876099	1458.869019	29.131104
240.076859	1259.962524	1975.535156	1466.999023	28.932981
240.456177	1263.360840	2010.206177	1476.505493	28.539330
240.835464	1266.350464	2052.361816	1486.657349	28.028461
241.214722	1268.243286	2118.499023	1503.756226	27.699070
241.593948	1271.835083	2203.584961	1529.609009	27.665571
241.973129	1272.007080	2313.103760	1559.397583	27.604593
242.352295	1273.104004	2449.937988	1595.810669	27.421597
242.731415	1274.028809	2594.773438	1633.170044	27.192329
243.110519	1276.136597	2738.920410	1669.432739	26.886826
243.489578	1279.879028	2854.095703	1701.479736	26.781618
243.868607	1280.524292	2936.471680	1722.815552	26.709257
244.247604	1278.610107	2992.048340	1735.139526	26.644054
244.626541	1278.545654	3030.138916	1744.323730	26.591681
245.005493	1277.706665	3060.357910	1754.260254	26.732857
245.384369	1278.093872	3082.252930	1759.981567	26.709824
245.763229	1277.039917	3105.395264	1765.358643	26.708086
246.142059	1276.695801	3143.271240	1776.069580	26.753475
246.520859	1278.373413	3211.688232	1795.190308	26.732164
246.899612	1283.535278	3337.144531	1828.334106	26.528845
247.278336	1285.127075	3500.261475	1874.404297	26.602325
247.657043	1286.783081	3670.949219	1921.635986	26.627882
248.035690	1292.074097	3825.097412	1963.899536	26.522669
248.414322	1294.633545	3956.468994	1998.097168	26.427765
248.792908	1296.332642	4057.556885	2030.058105	26.572470
249.171478	1296.440308	4134.491211	2050.447510	26.567783
249.550003	1297.472656	4170.065430	2059.653076	26.532839
249.928482	1299.150269	4163.354980	2056.276367	26.434078
250.306961	1300.655762	4105.949707	2036.940674	26.246265
250.685364	1299.193237	3984.687500	2004.312866	26.256607
251.063782	1295.364746	3801.374268	1956.479004	26.381155
251.442123	1292.891357	3596.402344	1899.203125	26.321201
251.820450	1288.761841	3427.220215	1851.412109	26.311022
252.198761	1285.148438	3321.271729	1823.171997	26.423918
252.576996	1283.771973	3252.962402	1806.374268	26.538942
252.955246	1284.266724	3202.784180	1788.587402	26.287001
253.333420	1282.395508	3155.960938	1775.983521	26.344851
253.711578	1282.094360	3120.386719	1765.767090	26.310980
254.089706	1281.234009	3094.641602	1759.207031	26.357727
254.467804	1278.696167	3074.488281	1756.239014	26.592323
254.845871	1278.954224	3059.067383	1752.001953	26.574026
255.223877	1279.362915	3035.322754	1744.216064	26.472881
255.601898	1279.986572	3003.275635	1736.580811	26.495510
255.979828	1278.072266	2957.786133	1723.310181	26.506771
256.357727	1275.921509	2903.155518	1704.727295	26.351820
256.735657	1277.986328	2861.386719	1689.349243	25.979715
257.113525	1275.469849	2853.579346	1685.198120	25.963234
257.491333	1275.814087	2883.432617	1692.532471	25.921473
257.869110	1277.921875	2942.601318	1707.071777	25.779732
258.246887	1279.448975	3030.805664	1730.494019	25.754036
258.624573	1278.932617	3157.036133	1762.089111	25.725765
259.002289	1279.792969	3341.295898	1808.374634	25.640596
259.379944	1281.255493	3600.080322	1875.393677	25.622385
259.757538	1282.567505	3934.035400	1959.016846	25.512260
260.135162	1288.331665	4299.199219	2051.931641	25.361460
260.512665	1292.977417	4625.433105	2139.512451	25.402740
260.890228	1291.622437	4865.914551	2204.058105	25.527731
261.267700	1292.805298	5017.804199	2244.751221	25.555601
261.645142	1295.235718	5103.686035	2265.721680	25.482437
262.022552	1294.805542	5155.219238	2275.894775	25.414097
262.399994	1293.084839	5181.330078	2279.443604	25.367710
262.777313	1296.268066	5170.166992	2275.120850	25.267897
263.154602	1296.010010	5093.103516	2254.666748	25.247120
263.531921	1295.536865	4939.601074	2213.414063	25.188282
263.909149	1293.988281	4691.892578	2149.535156	25.178663
264.286377	1290.611450	4405.685547	2074.106445	25.151728
264.663574	1287.385254	4147.826172	2006.076660	25.125196
265.040710	1289.364136	3970.470947	1957.231934	24.910151
265.417816	1288.245605	3871.103271	1931.981323	24.923391
265.794891	1288.611206	3844.691650	1921.894165	24.775547
266.171936	1288.976929	3865.167236	1928.367920	24.819244
266.548950	1289.170532	3915.560791	1940.111328	24.784618
266.925934	1287.621948	3973.847412	1951.596558	24.717752
267.302887	1286.912231	4037.941162	1962.780884	24.567850
267.679810	1286.202515	4101.884766	1974.975830	24.462042
268.056671	1288.869385	4178.711426	1991.386597	24.309883
268.433502	1289.901733	4260.613770	2009.539185	24.224411
268.810333	1290.138184	4344.064453	2025.025269	24.063681
269.187073	1288.159546	4420.568848	2041.586426	24.052633
269.563843	1291.127808	4495.244629	2057.760498	23.926491
269.940521	1290.525513	4550.649414	2070.299561	23.918539
270.317200	1290.826538	4602.333496	2078.515625	23.786425
270.693848	1291.837402	4668.664063	2092.388428	23.707199
271.070435	1295.063599	4802.809570	2120.628418	23.535479
271.447021	1298.569458	4975.347168	2165.795166	23.586569
271.823547	1300.892456	5153.003418	2210.811523	23.621311
272.200043	1301.236450	5297.623535	2248.687256	23.707684
272.576538	1301.731201	5417.380371	2279.809326	23.764854
272.952972	1303.602417	5524.404297	2305.618896	23.739956
273.329346	1305.452026	5626.266602	2328.955322	23.687740
273.705688	1305.495117	5704.082520	2343.408447	23.596516
274.082062	1306.118896	5763.487793	2354.872314	23.528530
274.458344	1304.914429	5788.759766	2359.561279	23.521036
274.834595	1307.861206	5770.413574	2352.162354	23.401432
275.210846	1304.936035	5690.102051	2332.396484	23.430367
275.587006	1301.774292	5586.046387	2301.661621	23.338558
275.963165	1300.913818	5493.390137	2277.335938	23.289865
276.339294	1300.182495	5446.760742	2261.893066	23.192873
276.715393	1300.763184	5423.337891	2252.149902	23.077488
277.091461	1301.064331	5414.713867	2248.192383	23.024035
277.467438	1302.591553	5411.982422	2244.837158	22.929083
277.843445	1302.526978	5416.176270	2245.202881	22.915806
278.219452	1303.602417	5431.188965	2250.214600	22.933794
278.595337	1304.226196	5454.288574	2254.709473	22.902866
278.971191	1304.570313	5486.980957	2261.893311	22.889263
279.347046	1307.344849	5512.983887	2266.001221	22.794546
279.722870	1309.753784	5537.567871	2271.916016	22.757914
280.098663	1310.377441	5561.312988	2276.023926	22.716093
280.474396	1310.979614	5597.123535	2282.003174	22.654945
280.850098	1312.055054	5649.495605	2292.563721	22.605698
281.225800	1313.108887	5724.945801	2310.092773	22.597931
281.601440	1313.517578	5833.131348	2334.784180	22.596325
281.977051	1313.797119	5982.203613	2369.347412	22.610506
282.352600	1314.700439	6137.964355	2402.684814	22.557016
282.728149	1317.496582	6282.090332	2437.054688	22.550850
283.103668	1317.475098	6392.448242	2460.369385	22.520205
283.479156	1319.604370	6480.501953	2481.963135	22.522415
283.854553	1319.668945	6564.039551	2500.782715	22.521555
284.229950	1320.851929	6661.018555	2522.161865	22.495739
284.605347	1322.895142	6765.247070	2542.013916	22.400587
284.980652	1320.787354	6863.861328	2563.995117	22.428127
285.355988	1320.916382	6953.184570	2582.879150	22.405943
285.731201	1319.260254	7031.666992	2601.677246	22.449678
286.106445	1319.776489	7098.621582	2613.958252	22.395163
286.481659	1320.228027	7166.027832	2626.884521	22.352057
286.856781	1320.464722	7232.853516	2639.617432	22.311670
287.231934	1318.894653	7298.947266	2653.016846	22.309540
287.607025	1316.464233	7346.716797	2663.728027	22.341747
287.982056	1316.894409	7365.557617	2663.233398	22.258455
288.357086	1315.732910	7357.599609	2660.329590	22.254656
288.732086	1311.667969	7326.048340	2653.662109	22.313091
289.107025	1310.850708	7290.688965	2642.370361	22.266817
289.481934	1310.571045	7261.221680	2631.401367	22.196404
289.856842	1311.818359	7236.639160	2621.529297	22.105495
290.231659	1311.022583	7237.713867	2620.754883	22.098879
290.606506	1311.689331	7248.296387	2620.131104	22.040230
290.981262	1312.184082	7264.535645	2621.443115	21.995661
291.355988	1309.947144	7285.590820	2627.594482	22.050301
291.730713	1311.646362	7312.411133	2631.616455	21.996698
292.105377	1310.377319	7339.360840	2638.348633	22.026455
292.480011	1310.484985	7357.492188	2640.198242	21.989609
292.854614	1312.549683	7364.181152	2644.542969	22.010483
293.229187	1313.861694	7380.162109	2648.736816	22.004765
293.603729	1313.517578	7405.820801	2659.706055	22.096544
293.978241	1312.506714	7443.051270	2670.502930	22.151316
294.352692	1314.033691	7473.033203	2680.396729	22.184822
294.727081	1313.603638	7494.950195	2689.645264	22.261194
295.101501	1311.560425	7516.952637	2702.141357	22.409235
295.475830	1314.722168	7571.195801	2721.111328	22.478943
295.850189	1317.367676	7669.617676	2750.276367	22.557499
296.224457	1320.572266	7832.454590	2793.572021	22.620184
296.598694	1323.067261	8046.718262	2850.546631	22.718006
296.972931	1324.938354	8301.458984	2911.694336	22.744232
297.347107	1326.938599	8538.541016	2972.690918	22.820896
297.721283	1328.874390	8714.519531	3018.158691	22.872536
298.095367	1331.175781	8806.853516	3047.796875	22.962749
298.469452	1331.648926	8820.446289	3057.045410	23.039701
298.843475	1328.057129	8795.217773	3056.507813	23.147362
299.217529	1329.046387	8756.138672	3047.130371	23.132660
299.591492	1328.444214	8698.583984	3032.935059	23.126982
299.965424	1325.196533	8618.014648	3014.717773	23.166918
300.339325	1323.841553	8485.374023	2983.939697	23.180767
300.713196	1320.120605	8301.758789	2941.848633	23.228474
301.087036	1318.830078	8080.785645	2894.036133	23.295126
301.460815	1318.313965	7865.405762	2843.212646	23.291237
301.834564	1318.830200	7684.758301	2797.916504	23.234417
302.208282	1315.969482	7537.729980	2758.685791	23.188232
302.582001	1314.270386	7416.811035	2729.241211	23.186586
302.955658	1316.012573	7311.185547	2704.098145	23.153387
303.329254	1312.506714	7221.174805	2679.041504	23.127628
303.702820	1310.958130	7142.068359	2659.576660	23.127989
304.076416	1310.807495	7075.995117	2642.413330	23.097355
304.449921	1307.430786	7021.515137	2625.830811	23.072813
304.823395	1309.603027	6969.917480	2611.614014	23.002449
305.196838	1308.527588	6920.384277	2595.612061	22.935093
305.570251	1308.183594	6865.559570	2577.867920	22.846832
305.943604	1304.828369	6805.509766	2559.672119	22.812513
306.316986	1304.312256	6761.246582	2547.433594	22.780581
306.690277	1306.420044	6728.404297	2534.012695	22.641022
307.063507	1305.581177	6712.079590	2524.656494	22.548334
307.436768	1305.989746	6721.134277	2525.452637	22.519489
307.809937	1307.258789	6748.900391	2527.366699	22.421688
308.183136	1308.011597	6803.165527	2537.690674	22.377520
308.556244	1310.054810	6877.411133	2552.402100	22.314852
308.929321	1309.172974	6967.895508	2568.640625	22.257101
309.302399	1310.226929	7060.530762	2585.331055	22.174553
309.675446	1309.043945	7157.489258	2604.903564	22.157335
310.048401	1308.054565	7253.113770	2627.809570	22.199190
310.421356	1309.237427	7348.910645	2647.403320	22.156263
310.794281	1307.839355	7451.095215	2667.943604	22.139795
311.167145	1308.248047	7564.163574	2695.000244	22.167055
311.539978	1312.119507	7661.917480	2714.701904	22.088615
311.912781	1313.324097	7733.152832	2727.929443	22.034939
312.285553	1312.012207	7749.498047	2726.595459	21.974157
312.658295	1312.399292	7722.591797	2717.626953	21.921770
313.031006	1312.227295	7670.456055	2703.259521	21.877670
313.403656	1311.839966	7615.524902	2689.795410	21.859522
313.776276	1313.603638	7565.497070	2679.901855	21.854151
314.148865	1316.313599	7539.773438	2669.986572	21.751131
314.521454	1316.442627	7537.837402	2667.448730	21.715487
314.893982	1316.958862	7538.117188	2663.577148	21.645781
315.266449	1319.109619	7502.563965	2649.639893	21.517590
315.638885	1316.851440	7438.685547	2636.025391	21.548672
316.011322	1317.281494	7355.319824	2615.893799	21.507189
316.383667	1318.270752	7282.773438	2597.891602	21.453939
316.756042	1318.722534	7224.507813	2585.352539	21.447275
317.128326	1319.754883	7172.802734	2571.630127	21.388433
317.500610	1316.872803	7118.904297	2558.316650	21.396711
317.872833	1315.517700	7058.530762	2541.605225	21.349203
318.245087	1312.592651	6980.606445	2522.936279	21.353930
