Jaz Data File
++++++++++++++++++++++++++++++++++++
Date: Mon Apr 22 19:27:47 2019
User: jaz
Dark Spectrum Present: Yes
Reference Spectrum Present: Yes
Processed Spectrum Present: Yes
Spectrometers: JAZA2928
Integration Time (usec): 40000 (JAZA2928)
Spectra Averaged: 10 (JAZA2928)
Boxcar Smoothing: 5 (JAZA2928)
Correct for Electrical Dark: No (JAZA2928)
Strobe/Lamp Enabled: Yes (JAZA2928)
Correct for Detector Non-linearity: No (JAZA2928)
Correct for Stray Light: No (JAZA2928)
Number of Pixels in Processed Spectrum: 2048
>>>>>Begin Processed Spectral Data<<<<<
W	D	R	S	P
190.104553	0.000000	0.000000	0.000000	0.000000
190.488098	0.000000	0.000000	0.000000	0.000000
190.871613	1077.423828	1084.994751	1058.969971	-243.746475
191.255096	1080.499390	1079.079956	1057.550293	1616.778442
191.638535	0.000000	0.000000	0.000000	0.000000
192.021942	903.294739	908.865295	886.583008	-300.001099
192.405334	1004.317993	1010.039124	988.423584	-277.819397
192.788696	1107.599609	1112.288330	1090.027466	-374.774811
193.172012	1111.471069	1116.052246	1096.264771	-331.929962
193.555313	1116.138306	1118.654663	1103.556152	-500.014557
193.938568	1122.375488	1122.956299	1109.277222	-2255.170166
194.321793	1125.386597	1126.505127	1113.428345	-1069.104004
194.704987	1126.655640	1129.473267	1114.912354	-416.779297
195.088150	1127.429810	1129.387207	1120.375366	-360.399139
195.471298	1126.505249	1131.710083	1120.396973	-117.357758
195.854401	1127.494629	1132.054199	1120.439941	-154.722641
196.237457	1129.064575	1128.957031	1121.687378	6859.705078
196.620499	1129.043091	1130.441040	1119.450562	-686.185791
197.003494	1127.171875	1130.140137	1118.095581	-305.778076
197.386475	1126.999878	1131.129395	1115.385620	-281.249817
197.769424	1126.419067	1132.441406	1111.707642	-244.280930
198.152344	1123.365112	1134.527832	1109.083618	-127.939201
198.535217	1120.934570	1135.947266	1108.502808	-82.808334
198.918076	1121.149658	1138.098022	1109.105103	-71.066185
199.300903	1121.838013	1139.668091	1107.728638	-79.132439
199.683670	1123.838257	1144.421387	1108.717896	-73.459969
200.066422	1123.730591	1145.023560	1110.524536	-62.020729
200.449142	1121.967041	1147.884277	1109.728760	-47.220627
200.831848	1122.719849	1149.174683	1112.718506	-37.805351
201.214508	1123.537109	1149.002686	1113.428223	-39.696281
201.597137	1122.891846	1150.120972	1114.159546	-32.069702
201.979736	1122.612183	1152.874146	1116.331787	-20.753431
202.362274	1122.633789	1149.088623	1118.052490	-17.317436
202.744827	1121.257202	1147.625977	1117.041626	-15.987000
203.127319	1119.171021	1146.055908	1114.310059	-18.080648
203.509796	1116.525513	1142.786621	1114.568237	-7.453133
203.892227	1113.406860	1136.872070	1112.611084	-3.391303
204.274643	1110.567749	1137.151489	1108.933228	-6.148576
204.657013	1110.804321	1134.850342	1107.578247	-13.416250
205.039352	1108.223389	1132.441406	1102.803345	-22.380213
205.421661	1104.932617	1135.796753	1102.265747	-8.640676
205.803940	1103.964722	1135.516968	1101.491333	-7.839025
206.186188	1103.771118	1133.344727	1099.921265	-13.017869
206.568405	1101.921387	1134.248169	1098.372559	-10.977982
206.950592	1103.297974	1136.119263	1098.523193	-14.547814
207.332748	1101.340698	1133.882446	1100.781616	-1.718045
207.714859	1099.964233	1136.269775	1098.975098	-2.724476
208.096939	1099.598511	1137.732422	1098.802979	-2.086154
208.478989	1098.695190	1137.280762	1099.813843	2.899147
208.861008	1098.931763	1138.291626	1099.663208	1.858353
209.243011	1099.318848	1140.765137	1101.018066	4.099809
209.624969	1098.652222	1139.410034	1101.125610	6.068502
210.006897	1098.480103	1140.377808	1102.437622	9.445671
210.388794	1097.469238	1141.345703	1102.351685	11.127711
210.770645	1097.426270	1141.603882	1103.986328	14.849283
211.152481	1097.146606	1140.549927	1103.082886	13.677016
211.534286	1097.404785	1143.152344	1100.609497	7.005208
211.916061	1097.490723	1141.238159	1103.534668	13.815541
212.297791	1097.985474	1142.119995	1102.846313	11.013691
212.679489	1097.125122	1143.195435	1104.395020	15.780005
213.061157	1093.662354	1142.313599	1105.341309	24.005459
213.442795	1093.812988	1142.786743	1106.459717	25.823481
213.824402	1094.071167	1142.829712	1106.137085	24.746264
214.205963	1094.823730	1141.496216	1104.803589	21.382744
214.587524	1093.705444	1141.195190	1106.115479	26.132029
214.969025	1094.952881	1142.937378	1104.480957	19.856571
215.350510	1093.554932	1145.948486	1105.900513	23.563168
215.731949	1092.823730	1144.572021	1106.244629	25.934959
216.113358	1092.221558	1147.841309	1104.566895	22.195959
216.494736	1093.361328	1147.239014	1105.921997	23.313305
216.876083	1093.124878	1145.324707	1104.287354	21.384123
217.257401	1094.823975	1146.765747	1104.782104	19.171717
217.638702	1094.910034	1149.389771	1104.351929	17.331020
218.019943	1095.791748	1151.841553	1103.835815	14.351642
218.401169	1094.006592	1152.142700	1105.685425	20.088778
218.782349	1094.372070	1154.788208	1105.642456	18.654594
219.163498	1094.436646	1158.272583	1108.567505	22.136213
219.544632	1098.286621	1158.659668	1108.631958	17.135689
219.925705	1102.416138	1162.423584	1112.266846	16.415810
220.306778	1103.104370	1163.929199	1112.503418	15.452650
220.687805	1101.082520	1168.661011	1114.245605	19.478218
221.068802	1101.770996	1176.640503	1115.858643	18.816267
221.449738	1101.985840	1182.598145	1118.805420	20.864780
221.830673	1099.340454	1186.620117	1122.203613	26.195288
222.211563	1098.394043	1191.932617	1127.128906	30.719801
222.592438	1098.759766	1200.084106	1129.817383	30.651684
222.973267	1099.060913	1206.730225	1131.882202	30.483421
223.354065	1097.727417	1211.655518	1132.054199	30.130215
223.734848	1093.791382	1217.828369	1133.731934	32.200516
224.115555	1090.436157	1228.302734	1134.785767	32.168499
224.496262	1092.694458	1238.497559	1136.936646	30.343790
224.876923	1092.178223	1246.498535	1139.732544	30.815334
225.257568	1091.016846	1255.639526	1142.614746	31.343130
225.638168	1088.113281	1265.554688	1145.518311	32.351540
226.018723	1090.479248	1277.147583	1149.776855	31.766291
226.399277	1092.328735	1291.923462	1152.680542	30.237175
226.779785	1094.759277	1309.861206	1157.283203	29.067116
227.160263	1093.726929	1333.046875	1165.778809	30.106926
227.540695	1093.103149	1363.351685	1175.801636	30.600901
227.921112	1091.984741	1408.217529	1189.631226	30.878038
228.301483	1092.501099	1466.525879	1211.332886	31.771099
228.681824	1092.006348	1543.460083	1240.132202	32.810860
229.062134	1095.339966	1631.212891	1270.802612	32.743332
229.442413	1095.404419	1713.438232	1299.128784	32.963303
229.822647	1099.469604	1782.349976	1320.722778	32.399990
230.202881	1100.846069	1832.011841	1335.907471	32.148853
230.583054	1100.674072	1871.651245	1350.382324	32.388538
230.963196	1098.372681	1904.106934	1360.383667	32.518288
231.343292	1097.576782	1930.819946	1367.954346	32.448818
231.723404	1097.146606	1946.348755	1371.739746	32.335426
232.103439	1098.372681	1940.670654	1370.535278	32.311913
232.483459	1098.630737	1913.054321	1359.286621	32.004951
232.863434	1096.802612	1867.650757	1340.832764	31.657358
233.243393	1091.662109	1814.934814	1321.432617	31.768171
233.623306	1092.909668	1767.294434	1304.333740	31.350660
234.003174	1092.242920	1737.763672	1294.095825	31.269777
234.383041	1089.382324	1724.880371	1288.847900	31.387283
234.762848	1090.930786	1717.675293	1284.503296	30.885393
235.142639	1091.855591	1711.932495	1282.718018	30.780445
235.522385	1094.135498	1708.491089	1282.567505	30.671490
235.902115	1095.834839	1710.212036	1282.008301	30.302795
236.281799	1095.641113	1716.384766	1283.664307	30.289991
236.661438	1096.178833	1729.009888	1284.868896	29.816814
237.041077	1095.576660	1740.946899	1287.750977	29.777374
237.420654	1098.458618	1747.033569	1287.794067	29.192532
237.800217	1097.963989	1755.550659	1290.159912	29.227467
238.179733	1098.351074	1761.530029	1290.052246	28.906401
238.559219	1100.372925	1769.509644	1292.525757	28.716528
238.938690	1098.265137	1782.220703	1293.622681	28.562901
239.318100	1096.630493	1800.158325	1299.472778	28.832163
239.697510	1097.017578	1821.687988	1302.742188	28.388714
240.076859	1097.168091	1847.260986	1312.463745	28.702532
240.456177	1098.178955	1891.976440	1324.207153	28.474291
240.835464	1096.651855	1948.263184	1341.090942	28.703127
241.214722	1097.275757	2024.745728	1364.577759	28.820557
241.593948	1097.963989	2132.092285	1394.108276	28.637093
241.973129	1097.856567	2259.333740	1430.908569	28.674864
242.352295	1097.297363	2406.750000	1474.440796	28.801609
242.731415	1097.856323	2553.327148	1515.456665	28.691771
243.110519	1095.877686	2674.417480	1551.503906	28.863777
243.489578	1095.877686	2769.440186	1576.453247	28.715723
243.868607	1096.049805	2835.943115	1595.186768	28.687792
244.247604	1097.684448	2886.035156	1606.414063	28.446859
244.626541	1098.910278	2917.953125	1615.017212	28.372446
245.005493	1099.792114	2945.719727	1621.534302	28.264500
245.384369	1100.114868	2970.948975	1627.448853	28.187105
245.763229	1100.609497	2998.909180	1636.503906	28.230232
246.142059	1102.760254	3052.937500	1649.924927	28.057177
246.520859	1102.351685	3154.261475	1675.454956	27.930239
246.899612	1100.889038	3308.366943	1716.685913	27.895947
247.278336	1101.942993	3494.518799	1769.208618	27.889008
247.657043	1102.394653	3664.540039	1816.375732	27.866531
248.035690	1101.405273	3803.309570	1855.305054	27.902534
248.414322	1100.867676	3921.002197	1887.889771	27.907253
248.792908	1099.297607	4008.367432	1913.226196	27.978998
249.171478	1099.835205	4061.642822	1929.615601	28.016012
249.550003	1101.104126	4068.827148	1932.131958	28.002203
249.928482	1100.588013	4035.661621	1920.109009	27.921650
250.306961	1099.620117	3942.724854	1894.449707	27.956394
250.685364	1099.362061	3780.747803	1851.971436	28.067926
251.063782	1100.652466	3577.324951	1795.706299	28.064020
251.442123	1101.168701	3379.536865	1740.452026	28.058825
251.820450	1102.416138	3241.261963	1702.856201	28.073090
252.198761	1102.201050	3168.177490	1683.757080	28.149208
252.576996	1101.276245	3111.740479	1668.572266	28.217165
252.955246	1101.921509	3063.153809	1655.689087	28.235695
253.333420	1101.039673	3017.792969	1643.235962	28.287224
253.711578	1100.437500	2990.306152	1634.374512	28.252600
254.089706	1100.308472	2965.872803	1629.104980	28.345123
254.467804	1098.716675	2948.537354	1625.039917	28.452663
254.845871	1099.856567	2933.202148	1620.286743	28.386911
255.223877	1098.996338	2907.005371	1610.952271	28.316006
255.601898	1100.480347	2870.334229	1596.090210	28.002869
255.979828	1098.265137	2818.026367	1578.862183	27.945568
256.357727	1098.630737	2763.826172	1562.537598	27.859003
256.735657	1098.480225	2741.457764	1555.719604	27.829924
257.113525	1098.071411	2758.492432	1556.623047	27.616589
257.491333	1098.480347	2812.197754	1568.237183	27.411570
257.869110	1097.835083	2891.799072	1589.014160	27.379539
258.246887	1097.684448	3007.146729	1620.953613	27.404007
258.624573	1097.232788	3174.092285	1664.378174	27.307838
259.002289	1097.275757	3402.142090	1723.890991	27.186621
259.379944	1098.566284	3704.265625	1810.632935	27.327278
259.757538	1098.415649	4068.052490	1909.075073	27.298269
260.135162	1099.318970	4428.032715	2007.882935	27.294744
260.512665	1100.760010	4715.939453	2082.472900	27.155302
260.890228	1099.792114	4904.715332	2134.285889	27.188295
261.267700	1101.147095	5016.622070	2162.482910	27.106182
261.645142	1101.942871	5083.039063	2180.270020	27.086187
262.022552	1103.211914	5120.677734	2187.131104	26.980171
262.399994	1102.717285	5125.904297	2186.335449	26.934322
262.777313	1103.857178	5080.715820	2174.118896	26.912239
263.154602	1104.911011	4961.216309	2140.157715	26.845560
263.531921	1102.824707	4760.159180	2079.397461	26.701763
263.909149	1102.459106	4480.791504	2002.355591	26.637297
264.286377	1101.491333	4192.583984	1921.549927	26.529732
264.663574	1099.878174	3972.277100	1861.606934	26.518906
265.040710	1101.921509	3845.767090	1823.452026	26.296322
265.417816	1099.168457	3795.782227	1810.353394	26.373259
265.794891	1099.340576	3797.803955	1808.052002	26.263519
266.171936	1099.104004	3841.508057	1818.505005	26.232494
266.548950	1099.921265	3899.708740	1831.625000	26.134258
266.925934	1101.383789	3954.425049	1843.927612	26.026396
267.302887	1100.329834	4020.368896	1858.832520	25.975771
267.679810	1102.308594	4091.776367	1876.125000	25.884754
268.056671	1102.652710	4176.216797	1896.837036	25.839199
268.433502	1101.749512	4266.658203	1916.947266	25.757385
268.810333	1101.684814	4350.517578	1939.337036	25.783175
269.187073	1099.039429	4426.677734	1956.048828	25.754284
269.563843	1101.362305	4488.276855	1970.738647	25.668682
269.940521	1100.588013	4541.895996	1984.632935	25.689211
270.317200	1099.899780	4605.710449	1999.774658	25.668098
270.693848	1099.146973	4713.035645	2026.035889	25.647964
271.070435	1097.705933	4884.304199	2066.019531	25.572124
271.447021	1095.856323	5082.371582	2114.154541	25.543568
271.823547	1093.920532	5251.705078	2154.503662	25.508371
272.200043	1092.931152	5382.043457	2186.442871	25.495060
272.576538	1096.501465	5496.100098	2215.349854	25.430693
272.952972	1096.630493	5606.415527	2239.180664	25.334913
273.329346	1099.641602	5698.835449	2260.817871	25.247387
273.705688	1097.490723	5766.155762	2277.013428	25.264668
274.082062	1094.221558	5809.837891	2286.885498	25.291794
274.458344	1094.049438	5806.568848	2284.992676	25.271900
274.834595	1093.060059	5748.755371	2269.786865	25.274996
275.210846	1093.748413	5652.141113	2243.826416	25.229902
275.587006	1095.361572	5538.041016	2215.306885	25.208778
275.963165	1096.135864	5473.688965	2195.067871	25.103796
276.339294	1095.920898	5444.265625	2185.582520	25.059229
276.715393	1094.329224	5440.265137	2178.463379	24.945930
277.091461	1093.942017	5437.361816	2177.086914	24.937605
277.467438	1092.931152	5444.867676	2178.183838	24.937237
277.843445	1094.372192	5460.289551	2180.054932	24.867229
278.219452	1097.361816	5481.604004	2182.033691	24.740236
278.595337	1097.275757	5513.521484	2185.862305	24.649593
278.971191	1097.318726	5547.805664	2188.228271	24.512140
279.347046	1096.716553	5572.969727	2191.432861	24.456087
279.722870	1095.727051	5607.189453	2196.056885	24.389648
280.098663	1096.953125	5631.234863	2204.380615	24.423437
280.474396	1098.222168	5683.004883	2215.134521	24.361294
280.850098	1099.727539	5749.679688	2234.104736	24.395460
281.225800	1099.770630	5852.595703	2254.171875	24.288738
281.601440	1099.125488	5983.816895	2286.025146	24.298355
281.977051	1098.996338	6153.665527	2324.761475	24.250156
282.352600	1100.265503	6314.695801	2363.067139	24.217443
282.728149	1102.996948	6448.454590	2395.242920	24.174656
283.103668	1104.007935	6547.198242	2420.300049	24.182364
283.479156	1102.588379	6633.079590	2440.195068	24.186037
283.854553	1102.502319	6720.380859	2460.089600	24.165480
284.229950	1098.480347	6819.877930	2481.210693	24.167704
284.605347	1096.501587	6916.750000	2502.245361	24.152641
284.980652	1094.888428	7007.728516	2520.613281	24.112354
285.355988	1092.500977	7095.331055	2540.895508	24.128529
285.731201	1094.243042	7173.210938	2559.714844	24.107248
286.106445	1094.888428	7234.551758	2572.039063	24.059149
286.481659	1094.802368	7309.464355	2585.976318	23.994450
286.856781	1091.490112	7380.248047	2601.591064	24.012707
287.231934	1093.942017	7436.878418	2613.807617	23.961546
287.607025	1097.254272	7468.667480	2616.905029	23.851078
287.982056	1100.114868	7471.699707	2615.291748	23.780220
288.357086	1103.577637	7457.009766	2607.763916	23.675177
288.732086	1104.201294	7427.049805	2601.849365	23.686287
289.107025	1104.373413	7399.476563	2592.751221	23.643423
289.481934	1106.137085	7369.988770	2583.416992	23.584209
289.856842	1104.395020	7367.579590	2574.448242	23.471338
290.231659	1103.276611	7383.409668	2576.448242	23.457651
290.606506	1102.717407	7399.583984	2581.416748	23.483097
290.981262	1104.029419	7420.532715	2584.062256	23.431204
291.355988	1103.341064	7460.408203	2592.364258	23.423115
291.730713	1101.276245	7499.531250	2603.441162	23.477728
292.105377	1100.996582	7523.040527	2611.936523	23.527399
292.480011	1102.115112	7531.126953	2617.206055	23.566467
292.854614	1101.340698	7544.418945	2624.841553	23.645544
293.229187	1102.093628	7573.949707	2640.477783	23.770370
293.603729	1104.115356	7617.632324	2659.361816	23.877214
293.978241	1103.771240	7652.840332	2680.934570	24.082251
294.352692	1101.964478	7681.683105	2701.345459	24.307741
294.727081	1101.061035	7708.525391	2720.853271	24.514582
295.101501	1098.609253	7761.865234	2751.480713	24.805763
295.475830	1095.512085	7848.133301	2789.894043	25.092211
295.850189	1095.038940	7991.893555	2839.319580	25.290958
296.224457	1091.683716	8203.381836	2910.962891	25.581501
296.598694	1089.403809	8463.350586	2996.435791	25.861753
296.972931	1089.016602	8729.597656	3080.381348	26.063002
297.347107	1088.586426	8935.946289	3150.132080	26.270563
297.721283	1087.898071	9061.037109	3202.525635	26.521893
298.095367	1089.769409	9098.051758	3228.679443	26.708727
298.469452	1092.737427	9080.931641	3240.594727	26.887896
298.843475	1092.199707	9037.636719	3240.853271	27.042610
299.217529	1094.587158	8972.337891	3234.163818	27.159740
299.591492	1096.436890	8892.672852	3221.625000	27.259155
299.965424	1098.135864	8774.442383	3201.837646	27.405128
300.339325	1102.179565	8594.958008	3159.853760	27.462101
300.713196	1103.513062	8374.263672	3109.030518	27.583363
301.087036	1105.448730	8138.126465	3052.851563	27.690773
301.460815	1104.975586	7937.585938	3001.640625	27.759010
301.834564	1103.771118	7774.533203	2958.431152	27.802820
302.208282	1103.125854	7649.119141	2926.900391	27.860929
302.582001	1103.297974	7531.814453	2892.724121	27.835754
302.955658	1103.297974	7423.306641	2867.904053	27.920944
303.329254	1100.889038	7332.241699	2843.686035	27.968197
303.702820	1101.276245	7248.747070	2821.381836	27.980703
304.076416	1100.910645	7176.007813	2804.154053	28.036480
304.449921	1099.491089	7122.452637	2787.614258	28.028126
304.823395	1099.749146	7062.165527	2768.923828	27.994936
305.196838	1099.426636	7003.878418	2748.921143	27.936455
305.570251	1097.921021	6932.858887	2733.349365	28.028204
305.943604	1096.479980	6870.485840	2710.873291	27.959675
306.316986	1096.350952	6825.146973	2695.194336	27.908890
306.690277	1094.759399	6800.218750	2686.246826	27.894115
307.063507	1094.200073	6800.971680	2681.773193	27.819111
307.436768	1095.038940	6830.372070	2687.193115	27.760448
307.809937	1092.328979	6880.078125	2699.796875	27.773628
308.183136	1093.081665	6951.484375	2715.218018	27.689054
308.556244	1091.640747	7039.259277	2739.285400	27.702595
308.929321	1092.802002	7145.702637	2763.310059	27.598473
309.302399	1091.963379	7244.488770	2791.829834	27.628759
309.675446	1093.597778	7353.104492	2814.305664	27.489511
310.048401	1095.167969	7449.568359	2842.416504	27.496670
310.421356	1093.662354	7553.624512	2869.086670	27.483511
310.794281	1094.049438	7670.606445	2901.090576	27.477009
311.167145	1096.264771	7784.168945	2930.556641	27.427006
311.539978	1100.437378	7864.242676	2952.365723	27.379978
311.912781	1102.588135	7910.098145	2959.958252	27.284134
312.285553	1101.147095	7899.667480	2957.979492	27.312302
312.658295	1102.308472	7851.940430	2945.612305	27.309694
313.031006	1101.254639	7786.728027	2930.470703	27.361053
313.403656	1101.792358	7728.354980	2910.317627	27.292057
313.776276	1101.663208	7684.435547	2898.208740	27.291624
314.148865	1102.029053	7688.415527	2899.176758	27.285791
314.521454	1105.040161	7694.351563	2898.724854	27.221125
314.893982	1103.147583	7677.596680	2891.046631	27.194658
315.266449	1101.018311	7620.212891	2874.420898	27.202787
315.638885	1095.899292	7539.772949	2848.998291	27.205671
316.011322	1094.544189	7452.429199	2828.845215	27.277956
316.383667	1094.759277	7385.065430	2810.369629	27.273876
316.756042	1094.458130	7327.316895	2794.217529	27.270943
317.128326	1094.049561	7277.848145	2780.172852	27.266788
317.500610	1094.329102	7220.959473	2763.031006	27.236862
317.872833	1094.157104	7145.443848	2745.157959	27.283468
318.245087	1094.608643	7047.453613	2715.627197	27.230989
