Jaz Data File
++++++++++++++++++++++++++++++++++++
Date: Thu Dec 19 19:55:52 2019
User: jaz
Dark Spectrum Present: Yes
Reference Spectrum Present: Yes
Processed Spectrum Present: Yes
Spectrometers: JAZA2928
Integration Time (usec): 32200 (JAZA2928)
Spectra Averaged: 10 (JAZA2928)
Boxcar Smoothing: 5 (JAZA2928)
Correct for Electrical Dark: No (JAZA2928)
Strobe/Lamp Enabled: Yes (JAZA2928)
Correct for Detector Non-linearity: No (JAZA2928)
Correct for Stray Light: No (JAZA2928)
Number of Pixels in Processed Spectrum: 2048
>>>>>Begin Processed Spectral Data<<<<<
W	D	R	S	P
190.104553	0.000000	0.000000	0.000000	0.000000
190.488098	0.000000	0.000000	0.000000	0.000000
190.871613	1222.216064	1221.506226	1225.054932	-399.931213
191.255096	1238.540649	1233.335571	1253.445557	-286.353180
191.638535	0.000000	0.000000	0.000000	0.000000
192.021942	1036.773560	1030.450195	1033.762573	47.616840
192.405334	1155.648560	1147.669067	1150.120972	69.272430
192.788696	1274.652466	1262.909058	1269.576660	43.222595
193.172012	1281.298462	1269.963745	1275.641846	49.905228
193.555313	1285.621704	1275.921387	1278.567017	72.726357
193.938568	1287.686401	1279.212036	1279.965088	91.113770
194.321793	1290.460938	1281.040405	1283.901001	69.634460
194.704987	1289.019897	1284.245117	1284.374146	97.297714
195.088150	1289.234985	1288.267090	1282.954712	648.858643
195.471298	1289.493042	1288.654419	1281.083496	1002.780212
195.854401	1289.772705	1286.008911	1279.792969	265.150970
196.237457	1290.568481	1284.460205	1277.319580	216.900818
196.620499	1288.439331	1282.847168	1275.168823	237.305450
197.003494	1284.438721	1283.922485	1272.673828	2278.978516
197.386475	1282.524536	1283.363403	1272.200806	-1230.675171
197.769424	1281.212402	1279.771484	1271.985718	640.333801
198.152344	1276.953857	1280.287720	1272.910645	-121.277138
198.535217	1276.007568	1284.933472	1272.587891	-38.311840
198.918076	1276.867920	1284.051636	1273.340698	-49.100239
199.300903	1277.900269	1285.406616	1272.996460	-65.328827
199.683670	1277.362671	1288.159668	1275.190308	-20.120070
200.066422	1276.029175	1290.396362	1274.630981	-9.731852
200.449142	1272.996338	1293.257080	1275.383911	11.784234
200.831848	1272.308105	1295.923950	1277.642090	22.586464
201.214508	1273.082520	1297.494019	1276.738770	14.977572
201.597137	1270.372437	1297.322144	1275.706421	19.792364
201.979736	1270.437012	1300.462280	1273.921265	11.604403
202.362274	1269.383057	1301.989380	1274.286987	15.039815
202.744827	1266.500977	1300.075073	1272.286743	17.232828
203.127319	1266.672974	1301.387085	1271.211426	13.073796
203.509796	1265.511597	1299.752441	1272.673828	20.917215
203.892227	1264.479126	1296.504761	1271.146851	20.819962
204.274643	1262.263794	1295.128174	1271.964111	29.516205
204.657013	1263.597534	1293.515137	1272.179199	28.684334
205.039352	1263.640503	1292.095581	1269.856323	21.844328
205.421661	1264.092163	1289.751221	1270.028442	23.135220
205.803940	1264.909424	1291.364380	1268.157349	12.277188
206.186188	1265.898804	1292.547241	1268.737915	10.653951
206.568405	1264.973755	1292.353638	1269.641235	17.047117
206.950592	1264.758911	1290.504028	1268.630371	15.037647
207.332748	1262.328491	1288.654297	1267.038696	17.891970
207.714859	1261.661621	1287.793945	1264.758911	11.852333
208.096939	1260.478760	1288.116577	1264.113647	13.151862
208.478989	1260.220581	1289.772583	1263.834106	12.227684
208.861008	1258.392456	1290.697388	1264.758911	19.707378
209.243011	1256.542847	1291.041504	1263.468506	20.075155
209.624969	1254.563965	1292.740723	1262.070435	19.662407
210.006897	1256.112671	1290.503906	1262.715698	19.199739
210.388794	1252.155273	1290.288940	1261.747803	25.155014
210.770645	1254.585693	1292.611816	1257.274170	7.070078
211.152481	1253.273560	1292.353638	1257.682739	11.282423
211.534286	1252.133789	1291.041626	1258.586060	16.583473
211.916061	1251.208862	1291.536255	1257.833252	16.426525
212.297791	1251.488403	1293.773193	1259.661377	19.328402
212.679489	1250.240967	1292.418213	1259.769043	22.590561
213.061157	1249.832275	1292.224731	1261.059570	26.484180
213.442795	1248.907471	1290.891113	1262.564941	32.530457
213.824402	1249.208618	1290.891113	1261.210083	28.792578
214.205963	1249.251587	1292.998901	1262.199463	29.596962
214.587524	1250.778687	1292.697754	1260.543335	23.294050
214.969025	1250.004395	1290.955688	1260.543335	25.735306
215.350510	1251.638916	1293.730347	1259.446411	18.548895
215.731949	1254.628540	1297.343628	1259.467896	11.329382
216.113358	1253.961792	1301.021484	1259.575317	11.928521
216.494736	1254.542603	1302.505493	1258.457031	8.161369
216.876083	1258.156006	1306.893066	1258.564575	0.838313
217.257401	1258.543091	1309.237427	1257.274170	-2.503082
217.638702	1260.457275	1314.420898	1256.908569	-6.576108
218.019943	1260.607910	1316.421265	1259.661621	-1.695453
218.401169	1260.048706	1319.152710	1259.898071	-0.254864
218.782349	1262.521973	1321.927246	1262.952148	0.724137
219.163498	1263.059692	1323.755371	1266.458008	5.598941
219.544632	1262.479004	1325.282593	1269.038940	10.445162
219.925705	1262.070313	1328.229248	1270.479858	12.711126
220.306778	1261.704712	1329.971313	1270.587402	13.011766
220.687805	1260.328247	1330.100464	1271.727417	16.337692
221.068802	1259.102417	1331.304810	1272.609253	18.706909
221.449738	1259.575439	1335.176270	1273.577271	18.520737
221.830673	1260.844482	1340.144653	1275.986206	19.094189
222.211563	1260.564819	1345.908691	1276.050659	18.145227
222.592438	1260.005615	1350.704956	1277.211914	18.970699
222.973267	1257.661133	1356.189453	1275.899902	18.511194
223.354065	1257.489136	1360.684570	1276.588257	18.507719
223.734848	1257.983765	1367.545776	1279.577881	19.709492
224.115555	1257.058838	1371.632324	1280.803833	20.724686
224.496262	1259.274292	1378.923584	1284.847412	21.373398
224.876923	1259.166748	1387.118164	1287.299316	21.986914
225.257568	1258.413940	1396.839844	1289.643677	22.560616
225.638168	1257.467651	1405.399902	1293.127930	24.105818
226.018723	1255.510376	1415.358154	1296.547729	25.672771
226.399277	1256.671875	1429.618042	1302.785034	26.663301
226.779785	1256.284668	1448.308594	1309.130005	27.520184
227.160263	1256.564331	1469.364868	1316.958862	28.380817
227.540695	1255.811523	1498.056519	1325.024536	28.571493
227.921112	1255.682495	1535.050659	1331.197266	27.030558
228.301483	1256.327637	1587.142944	1346.446411	27.241417
228.681824	1255.940552	1654.613770	1365.373535	27.449293
229.062134	1257.187988	1742.345215	1386.860107	26.727856
229.442413	1256.822388	1835.195313	1411.766357	26.789631
229.822647	1256.736450	1917.162231	1431.145020	26.408504
230.202881	1256.370850	1976.868774	1447.491089	26.526133
230.583054	1255.919067	2022.057129	1456.782715	26.217684
230.963196	1257.231079	2059.610352	1462.073730	25.529406
231.343292	1256.671875	2089.786133	1471.644653	25.803516
231.723404	1257.381592	2115.445068	1475.731323	25.446804
232.103439	1258.865601	2118.628174	1478.677979	25.566637
232.483459	1259.683105	2104.992188	1474.698975	25.436361
232.863434	1258.586060	2070.450195	1462.353394	25.098700
233.243393	1258.285034	2015.389771	1447.039551	24.931097
233.623306	1259.682983	1957.339478	1431.123535	24.573776
234.003174	1262.436035	1916.216064	1419.767456	24.064886
234.383041	1264.672852	1894.191772	1414.928101	23.868265
234.762848	1262.823120	1883.179688	1412.777222	24.172243
235.142639	1262.758667	1874.318359	1412.970825	24.562141
235.522385	1263.877075	1869.134888	1408.153076	23.837114
235.902115	1263.984619	1861.284424	1408.325073	24.165495
236.281799	1261.790894	1867.285156	1408.819702	24.282444
236.661438	1260.521851	1877.587524	1408.368042	23.959555
237.041077	1259.962646	1886.642456	1413.572998	24.511776
237.420654	1258.521606	1899.052368	1416.347534	24.639868
237.800217	1259.618530	1908.171875	1414.626953	23.900644
238.179733	1258.392456	1913.032715	1414.885010	23.905123
238.559219	1255.639526	1920.151855	1411.551270	23.462582
238.938690	1257.015991	1925.270630	1411.422363	23.105919
239.318100	1257.059082	1934.110840	1410.282349	22.630953
239.697510	1257.037476	1949.876099	1413.745239	22.618219
240.076859	1259.962524	1975.535156	1418.520020	22.158127
240.456177	1263.360840	2010.206177	1423.402344	21.429003
240.835464	1266.350464	2052.361816	1434.392822	21.379126
241.214722	1268.243286	2118.499023	1445.060791	20.795803
241.593948	1271.835083	2203.584961	1464.374878	20.664322
241.973129	1272.007080	2313.103760	1491.969849	21.127987
242.352295	1273.104004	2449.937988	1523.070435	21.240585
242.731415	1274.028809	2594.773438	1556.644409	21.398201
243.110519	1276.136597	2738.920410	1586.841675	21.240669
243.489578	1279.879028	2854.095703	1613.941772	21.220886
243.868607	1280.524292	2936.471680	1633.342163	21.306105
244.247604	1278.610107	2992.048340	1646.419067	21.466135
244.626541	1278.545654	3030.138916	1653.000488	21.377956
245.005493	1277.706665	3060.357910	1657.732300	21.318003
245.384369	1278.093872	3082.252930	1663.883545	21.383352
245.763229	1277.039917	3105.395264	1666.937866	21.325064
246.142059	1276.695801	3143.271240	1674.185913	21.295155
246.520859	1278.373413	3211.688232	1688.209106	21.198601
246.899612	1283.535278	3337.144531	1715.524658	21.035616
247.278336	1285.127075	3500.261475	1750.883667	21.026112
247.657043	1286.783081	3670.949219	1789.877808	21.101498
248.035690	1292.074097	3825.097412	1821.730957	20.910065
248.414322	1294.633545	3956.468994	1851.734741	20.929213
248.792908	1296.332642	4057.556885	1876.920776	21.026476
249.171478	1296.440308	4134.491211	1895.976685	21.124935
249.550003	1297.472656	4170.065430	1904.408081	21.128489
249.928482	1299.150269	4163.354980	1905.612549	21.173847
250.306961	1300.655762	4105.949707	1891.503174	21.061872
250.685364	1299.193237	3984.687500	1863.800903	21.024349
251.063782	1295.364746	3801.374268	1824.677612	21.121742
251.442123	1292.891357	3596.402344	1783.231689	21.286650
251.820450	1288.761841	3427.220215	1747.420776	21.448111
252.198761	1285.148438	3321.271729	1725.676147	21.635611
252.576996	1283.771973	3252.962402	1706.942627	21.489574
252.955246	1284.266724	3202.784180	1696.640259	21.494385
253.333420	1282.395508	3155.960938	1682.681641	21.364941
253.711578	1282.094360	3120.386719	1671.862915	21.202751
254.089706	1281.234009	3094.641602	1665.496826	21.190096
254.467804	1278.696167	3074.488281	1662.528809	21.374002
254.845871	1278.954224	3059.067383	1661.259644	21.476467
255.223877	1279.362915	3035.322754	1655.517090	21.421570
255.601898	1279.986572	3003.275635	1646.849487	21.288530
255.979828	1278.072266	2957.786133	1632.503418	21.100687
256.357727	1275.921509	2903.155518	1620.652344	21.185080
256.735657	1277.986328	2861.386719	1611.898560	21.088301
257.113525	1275.469849	2853.579346	1610.672607	21.240780
257.491333	1275.814087	2883.432617	1617.512207	21.254925
257.869110	1277.921875	2942.601318	1631.987183	21.269279
258.246887	1279.448975	3030.805664	1651.172241	21.224874
258.624573	1278.932617	3157.036133	1680.164917	21.363695
259.002289	1279.792969	3341.295898	1722.084106	21.454790
259.379944	1281.255493	3600.080322	1776.542603	21.359404
259.757538	1282.567505	3934.035400	1844.249878	21.183828
260.135162	1288.331665	4299.199219	1922.109009	21.049658
260.512665	1292.977417	4625.433105	1988.891479	20.882921
260.890228	1291.622437	4865.914551	2037.564331	20.869640
261.267700	1292.805298	5017.804199	2070.708252	20.883307
261.645142	1295.235718	5103.686035	2090.065430	20.870161
262.022552	1294.805542	5155.219238	2102.324951	20.917952
262.399994	1293.084839	5181.330078	2108.239746	20.964596
262.777313	1296.268066	5170.166992	2103.292725	20.832363
263.154602	1296.010010	5093.103516	2082.989258	20.725832
263.531921	1295.536865	4939.601074	2050.727295	20.723850
263.909149	1293.988281	4691.892578	1997.774292	20.712355
264.286377	1290.611450	4405.685547	1937.380005	20.762541
264.663574	1287.385254	4147.826172	1882.168701	20.793419
265.040710	1289.364136	3970.470947	1845.605103	20.746691
265.417816	1288.245605	3871.103271	1823.839111	20.736469
265.794891	1288.611206	3844.691650	1816.203491	20.640675
266.171936	1288.976929	3865.167236	1817.816528	20.527969
266.548950	1289.170532	3915.560791	1822.139771	20.292843
266.925934	1287.621948	3973.847412	1830.463379	20.208334
267.302887	1286.912231	4037.941162	1839.690552	20.093513
267.679810	1286.202515	4101.884766	1848.035645	19.953712
268.056671	1288.869385	4178.711426	1862.381348	19.845789
268.433502	1289.901733	4260.613770	1875.458252	19.710983
268.810333	1290.138184	4344.064453	1890.750366	19.666885
269.187073	1288.159546	4420.568848	1904.880981	19.688406
269.563843	1291.127808	4495.244629	1916.387939	19.514275
269.940521	1290.525513	4550.649414	1925.830078	19.487129
270.317200	1290.826538	4602.333496	1932.411377	19.374409
270.693848	1291.837402	4668.664063	1948.478027	19.445494
271.070435	1295.063599	4802.809570	1972.825317	19.321857
271.447021	1298.569458	4975.347168	2005.453003	19.225626
271.823547	1300.892456	5153.003418	2038.360229	19.144510
272.200043	1301.236450	5297.623535	2065.761475	19.130404
272.576538	1301.731201	5417.380371	2091.743164	19.195318
272.952972	1303.602417	5524.404297	2112.756592	19.170628
273.329346	1305.452026	5626.266602	2131.167480	19.110180
273.705688	1305.495117	5704.082520	2144.997070	19.085718
274.082062	1306.118896	5763.487793	2156.611328	19.080593
274.458344	1304.914429	5788.759766	2162.504639	19.126223
274.834595	1307.861206	5770.413574	2156.525146	19.017456
275.210846	1304.936035	5690.102051	2141.060791	19.067118
275.587006	1301.774292	5586.046387	2121.875977	19.142149
275.963165	1300.913818	5493.390137	2105.185547	19.183691
276.339294	1300.182495	5446.760742	2096.517822	19.204638
276.715393	1300.763184	5423.337891	2086.645752	19.062906
277.091461	1301.064331	5414.713867	2083.204346	19.013288
277.467438	1302.591553	5411.982422	2080.967529	18.941397
277.843445	1302.526978	5416.176270	2082.193604	18.953161
278.219452	1303.602417	5431.188965	2082.021240	18.858934
278.595337	1304.226196	5454.288574	2084.387207	18.798777
278.971191	1304.570313	5486.980957	2087.183350	18.712009
279.347046	1307.344849	5512.983887	2093.399170	18.690485
279.722870	1309.753784	5537.567871	2097.700928	18.637224
280.098663	1310.377441	5561.312988	2099.507568	18.563681
280.474396	1310.979614	5597.123535	2105.034912	18.526100
280.850098	1312.055054	5649.495605	2114.326416	18.496424
281.225800	1313.108887	5724.945801	2125.682617	18.418036
281.601440	1313.517578	5833.131348	2145.255371	18.402851
281.977051	1313.797119	5982.203613	2167.645020	18.289923
282.352600	1314.700439	6137.964355	2198.917725	18.332344
282.728149	1317.496582	6282.090332	2224.124756	18.261881
283.103668	1317.475098	6392.448242	2245.761963	18.291464
283.479156	1319.604370	6480.501953	2257.268555	18.168627
283.854553	1319.668945	6564.039551	2270.410400	18.128799
284.229950	1320.851929	6661.018555	2288.347900	18.117336
284.605347	1322.895142	6765.247070	2304.371582	18.034050
284.980652	1320.787354	6863.861328	2323.341797	18.086615
285.355988	1320.916382	6953.184570	2343.387207	18.153803
285.731201	1319.260254	7031.666992	2357.689941	18.178497
286.106445	1319.776489	7098.621582	2373.498291	18.234123
286.481659	1320.228027	7166.027832	2383.392090	18.186802
286.856781	1320.464722	7232.853516	2395.243164	18.178413
287.231934	1318.894653	7298.947266	2406.965088	18.194998
287.607025	1316.464233	7346.716797	2419.116943	18.285349
287.982056	1316.894409	7365.557617	2420.256836	18.241426
288.357086	1315.732910	7357.599609	2417.976807	18.243433
288.732086	1311.667969	7326.048340	2413.868896	18.326094
289.107025	1310.850708	7290.688965	2405.867920	18.311819
289.481934	1310.571045	7261.221680	2398.899414	18.289234
289.856842	1311.818359	7236.639160	2391.457520	18.222309
290.231659	1311.022583	7237.713867	2388.532471	18.180632
290.606506	1311.689331	7248.296387	2390.403809	18.170555
290.981262	1312.184082	7264.535645	2395.522705	18.200178
291.355988	1309.947144	7285.590820	2399.501709	18.233259
291.730713	1311.646362	7312.411133	2404.857178	18.217859
292.105377	1310.377319	7339.360840	2411.309570	18.260662
292.480011	1310.484985	7357.492188	2418.192139	18.318270
292.854614	1312.549683	7364.181152	2424.257568	18.370384
293.229187	1313.861694	7380.162109	2435.570557	18.490824
293.603729	1313.517578	7405.820801	2446.001953	18.588772
293.978241	1312.506714	7443.051270	2468.714600	18.859791
294.352692	1314.033691	7473.033203	2490.287109	19.098125
294.727081	1313.603638	7494.950195	2507.923584	19.321356
295.101501	1311.560425	7516.952637	2534.550781	19.708511
295.475830	1314.722168	7571.195801	2565.737549	19.995535
295.850189	1317.367676	7669.617676	2607.979248	20.317392
296.224457	1320.572266	7832.454590	2665.642090	20.655622
296.598694	1323.067261	8046.718262	2736.403320	21.020367
296.972931	1324.938354	8301.458984	2813.574463	21.337801
297.347107	1326.938599	8538.541016	2885.368164	21.610031
297.721283	1328.874390	8714.519531	2944.988770	21.881832
298.095367	1331.175781	8806.853516	2982.261963	22.086107
298.469452	1331.648926	8820.446289	3007.211182	22.374250
298.843475	1328.057129	8795.217773	3023.084229	22.699755
299.217529	1329.046387	8756.138672	3026.246094	22.851469
299.591492	1328.444214	8698.583984	3030.483398	23.093718
299.965424	1325.196533	8618.014648	3025.988037	23.321457
300.339325	1323.841553	8485.374023	3009.426758	23.536655
300.713196	1320.120605	8301.758789	2974.153564	23.691187
301.087036	1318.830078	8080.785645	2931.632080	23.851118
301.460815	1318.313965	7865.405762	2893.283447	24.056017
301.834564	1318.830200	7684.758301	2865.602539	24.297672
302.208282	1315.969482	7537.729980	2841.169189	24.513956
302.582001	1314.270386	7416.811035	2817.725586	24.636545
302.955658	1316.012573	7311.185547	2798.239258	24.723669
303.329254	1312.506714	7221.174805	2779.742432	24.831921
303.702820	1310.958130	7142.068359	2763.417969	24.908804
304.076416	1310.807495	7075.995117	2749.265625	24.950760
304.449921	1307.430786	7021.515137	2740.318115	25.076412
304.823395	1309.603027	6969.917480	2738.296631	25.240534
305.196838	1308.527588	6920.384277	2731.435547	25.355389
305.570251	1308.183594	6865.559570	2721.541504	25.432110
305.943604	1304.828369	6805.509766	2707.711914	25.503813
306.316986	1304.312256	6761.246582	2701.861572	25.610519
306.690277	1306.420044	6728.404297	2695.495361	25.619316
307.063507	1305.581177	6712.079590	2695.387695	25.706223
307.436768	1305.989746	6721.134277	2703.776123	25.812540
307.809937	1307.258789	6748.900391	2715.970947	25.887632
308.183136	1308.011597	6803.165527	2736.059570	25.987408
308.556244	1310.054810	6877.411133	2758.492432	26.016613
308.929321	1309.172974	6967.895508	2784.129883	26.065191
309.302399	1310.226929	7060.530762	2812.972168	26.133320
309.675446	1309.043945	7157.489258	2842.352295	26.217367
310.048401	1308.054565	7253.113770	2870.915039	26.288393
310.421356	1309.237427	7348.910645	2897.541748	26.297852
310.794281	1307.839355	7451.095215	2934.363525	26.476582
311.167145	1308.248047	7564.163574	2966.625488	26.508949
311.539978	1312.119507	7661.917480	2997.618652	26.544138
311.912781	1313.324097	7733.152832	3019.492432	26.576540
312.285553	1312.012207	7749.498047	3026.977295	26.640293
312.658295	1312.399292	7722.591797	3020.890625	26.652731
313.031006	1312.227295	7670.456055	3009.642090	26.696348
313.403656	1311.839966	7615.524902	2997.489990	26.740707
313.776276	1313.603638	7565.497070	2986.155273	26.752722
314.148865	1316.313599	7539.773438	2980.283447	26.737055
314.521454	1316.442627	7537.837402	2984.090088	26.805042
314.893982	1316.958862	7538.117188	2980.885742	26.746256
315.266449	1319.109619	7502.563965	2973.271729	26.751425
315.638885	1316.851440	7438.685547	2954.322998	26.748056
316.011322	1317.281494	7355.319824	2931.287842	26.730642
316.383667	1318.270752	7282.773438	2910.425049	26.693830
316.756042	1318.722534	7224.507813	2894.767334	26.686457
317.128326	1319.754883	7172.802734	2879.001709	26.639912
317.500610	1316.872803	7118.904297	2865.838867	26.696962
317.872833	1315.517700	7058.530762	2850.353271	26.725266
318.245087	1312.592651	6980.606445	2830.028076	26.771908
318.617218	1311.775391	6885.283203	2804.842285	26.788639
