Jaz Data File
++++++++++++++++++++++++++++++++++++
Date: Thu Dec 19 19:55:47 2019
User: jaz
Dark Spectrum Present: Yes
Reference Spectrum Present: Yes
Processed Spectrum Present: Yes
Spectrometers: JAZA2928
Integration Time (usec): 32200 (JAZA2928)
Spectra Averaged: 10 (JAZA2928)
Boxcar Smoothing: 5 (JAZA2928)
Correct for Electrical Dark: No (JAZA2928)
Strobe/Lamp Enabled: Yes (JAZA2928)
Correct for Detector Non-linearity: No (JAZA2928)
Correct for Stray Light: No (JAZA2928)
Number of Pixels in Processed Spectrum: 2048
>>>>>Begin Processed Spectral Data<<<<<
W	D	R	S	P
190.104553	0.000000	0.000000	0.000000	0.000000
190.488098	0.000000	0.000000	0.000000	0.000000
190.871613	1222.216064	1221.506226	1222.452515	-33.310406
191.255096	1238.540649	1233.335571	1243.745483	-99.995308
191.638535	0.000000	0.000000	0.000000	0.000000
192.021942	1036.773560	1030.450195	1026.858398	156.801987
192.405334	1155.648560	1147.669067	1143.496582	152.290115
192.788696	1274.652466	1262.909058	1260.801392	117.947655
193.172012	1281.298462	1269.963745	1266.415039	131.308289
193.555313	1285.621704	1275.921387	1268.845581	172.944061
193.938568	1287.686401	1279.212036	1271.684570	188.826309
194.321793	1290.460938	1281.040405	1276.136597	152.054474
194.704987	1289.019897	1284.245117	1278.954224	210.809158
195.088150	1289.234985	1288.267090	1283.750366	566.654053
195.471298	1289.493042	1288.654419	1284.761230	564.235779
195.854401	1289.772705	1286.008911	1284.202026	148.007004
196.237457	1290.568481	1284.460205	1284.632202	97.184196
196.620499	1288.439331	1282.847168	1283.427856	89.616028
197.003494	1284.438721	1283.922485	1281.513672	566.611511
197.386475	1282.524536	1283.363403	1281.234009	-153.841675
197.769424	1281.212402	1279.771484	1282.352417	-79.117249
198.152344	1276.953857	1280.287720	1281.427612	134.191345
198.535217	1276.007568	1284.933472	1279.578003	40.000820
198.918076	1276.867920	1284.051636	1279.255371	33.234211
199.300903	1277.900269	1285.406616	1274.351563	-47.276070
199.683670	1277.362671	1288.159668	1274.953613	-22.312292
200.066422	1276.029175	1290.396362	1273.985840	-14.222234
200.449142	1272.996338	1293.257080	1273.362183	1.805683
200.831848	1272.308105	1295.923950	1274.566650	9.563684
201.214508	1273.082520	1297.494019	1274.609497	6.255157
201.597137	1270.372437	1297.322144	1275.039673	17.318319
201.979736	1270.437012	1300.462280	1272.889038	8.166543
202.362274	1269.383057	1301.989380	1273.168579	11.609780
202.744827	1266.500977	1300.075073	1272.974976	19.282721
203.127319	1266.672974	1301.387085	1270.953247	12.330068
203.509796	1265.511597	1299.752441	1272.630737	20.791370
203.892227	1264.479126	1296.504761	1272.308105	24.445978
204.274643	1262.263794	1295.128174	1272.996338	32.657070
204.657013	1263.597534	1293.515137	1271.555298	26.598934
205.039352	1263.640503	1292.095581	1272.222168	30.158642
205.421661	1264.092163	1289.751221	1272.501831	32.774658
205.803940	1264.909424	1291.364380	1269.211060	16.260227
206.186188	1265.898804	1292.547241	1272.179199	23.567595
206.568405	1264.973755	1292.353638	1270.049927	18.539787
206.950592	1264.758911	1290.504028	1267.232300	9.607215
207.332748	1262.328491	1288.654297	1267.468872	19.526016
207.714859	1261.661621	1287.793945	1265.834351	15.967693
208.096939	1260.478760	1288.116577	1265.382568	17.743111
208.478989	1260.220581	1289.772583	1264.005981	12.809286
208.861008	1258.392456	1290.697388	1265.145996	20.905602
209.243011	1256.542847	1291.041504	1262.522095	17.331829
209.624969	1254.563965	1292.740723	1261.382080	17.859335
210.006897	1256.112671	1290.503906	1262.694092	19.136913
210.388794	1252.155273	1290.288940	1258.198975	15.848728
210.770645	1254.585693	1292.611816	1258.801147	11.085679
211.152481	1253.273560	1292.353638	1260.908936	19.537771
211.534286	1252.133789	1291.041626	1261.425049	23.880175
211.916061	1251.208862	1291.536255	1262.070313	26.933182
212.297791	1251.488403	1293.773193	1261.898315	24.618574
212.679489	1250.240967	1292.418213	1260.457153	24.222033
213.061157	1249.832275	1292.224731	1261.124023	26.636221
213.442795	1248.907471	1290.891113	1262.371582	32.069897
213.824402	1249.208618	1290.891113	1261.210083	28.792578
214.205963	1249.251587	1292.998901	1264.457886	34.759388
214.587524	1250.778687	1292.697754	1266.178589	36.737225
214.969025	1250.004395	1290.955688	1269.275635	47.058929
215.350510	1251.638916	1293.730347	1267.447510	37.557747
215.731949	1254.628540	1297.343628	1268.716431	32.981064
216.113358	1253.961792	1301.021484	1268.544434	30.987541
216.494736	1254.542603	1302.505493	1267.038818	26.053926
216.876083	1258.156006	1306.893066	1267.683838	19.549459
217.257401	1258.543091	1309.237427	1267.490356	17.649439
217.638702	1260.457275	1314.420898	1266.952637	12.036555
218.019943	1260.607910	1316.421265	1268.286133	13.756963
218.401169	1260.048706	1319.152710	1266.221313	10.443637
218.782349	1262.521973	1321.927246	1265.619141	5.213624
219.163498	1263.059692	1323.755371	1262.844604	-0.354371
219.544632	1262.479004	1325.282593	1263.941528	2.328727
219.925705	1262.070313	1328.229248	1261.941284	-0.195028
220.306778	1261.704712	1329.971313	1261.984375	0.409663
220.687805	1260.328247	1330.100464	1263.081299	3.945771
221.068802	1259.102417	1331.304810	1265.812866	9.293943
221.449738	1259.575439	1335.176270	1267.705566	10.754018
221.830673	1260.844482	1340.144653	1270.587646	12.286435
222.211563	1260.564819	1345.908691	1273.426636	15.070580
222.592438	1260.005615	1350.704956	1276.609741	18.306776
222.973267	1257.661133	1356.189453	1280.137085	22.811666
223.354065	1257.489136	1360.684570	1283.384766	25.093775
223.734848	1257.983765	1367.545776	1285.836670	25.422047
224.115555	1257.058838	1371.632324	1289.407104	28.233641
224.496262	1259.274292	1378.923584	1292.633301	27.880657
224.876923	1259.166748	1387.118164	1296.805908	29.416759
225.257568	1258.413940	1396.839844	1298.010376	28.604788
225.638168	1257.467651	1405.399902	1301.344116	29.659838
226.018723	1255.510376	1415.358154	1305.000488	30.960775
226.399277	1256.671875	1429.618042	1309.431030	30.506115
226.779785	1256.284668	1448.308594	1311.904419	28.965012
227.160263	1256.564331	1469.364868	1316.270630	28.057400
227.540695	1255.811523	1498.056519	1322.271362	27.434969
227.921112	1255.682495	1535.050659	1331.971558	27.307714
228.301483	1256.327637	1587.142944	1344.725830	26.721313
228.681824	1255.940552	1654.613770	1362.900146	26.828890
229.062134	1257.187988	1742.345215	1384.365112	26.213589
229.442413	1256.822388	1835.195313	1406.023682	25.796728
229.822647	1256.736450	1917.162231	1422.885986	25.157942
230.202881	1256.370850	1976.868774	1434.607788	24.738022
230.583054	1255.919067	2022.057129	1442.393677	24.339558
230.963196	1257.231079	2059.610352	1451.276489	24.183752
231.343292	1256.671875	2089.786133	1459.083984	24.295841
231.723404	1257.381592	2115.445068	1465.579468	24.263691
232.103439	1258.865601	2118.628174	1465.213623	24.000582
232.483459	1259.683105	2104.992188	1460.675537	23.777390
232.863434	1258.586060	2070.450195	1448.738525	23.421711
233.243393	1258.285034	2015.389771	1435.919800	23.462378
233.623306	1259.682983	1957.339478	1422.154663	23.288206
234.003174	1262.436035	1916.216064	1412.411621	22.939762
234.383041	1264.672852	1894.191772	1403.722412	22.088226
234.762848	1262.823120	1883.179688	1402.130737	22.456057
235.142639	1262.758667	1874.318359	1397.097900	21.966660
235.522385	1263.877075	1869.134888	1395.656738	21.772484
235.902115	1263.984619	1861.284424	1393.161865	21.626869
236.281799	1261.790894	1867.285156	1393.828613	21.806601
236.661438	1260.521851	1877.587524	1397.355957	22.174967
237.041077	1259.962646	1886.642456	1398.689453	22.136791
237.420654	1258.521606	1899.052368	1399.076660	21.943529
237.800217	1259.618530	1908.171875	1403.098755	22.123119
238.179733	1258.392456	1913.032715	1402.991211	22.088278
238.559219	1255.639526	1920.151855	1407.744385	22.889696
238.938690	1257.015991	1925.270630	1409.271484	22.784054
239.318100	1257.059082	1934.110840	1414.691528	23.282185
239.697510	1257.037476	1949.876099	1418.821045	23.350830
240.076859	1259.962524	1975.535156	1423.122681	22.801340
240.456177	1263.360840	2010.206177	1431.940918	22.572289
240.835464	1266.350464	2052.361816	1439.748291	22.060474
241.214722	1268.243286	2118.499023	1453.018799	21.731758
241.593948	1271.835083	2203.584961	1470.741333	21.347601
241.973129	1272.007080	2313.103760	1491.625732	21.094933
242.352295	1273.104004	2449.937988	1523.651123	21.289928
242.731415	1274.028809	2594.773438	1552.944946	21.118097
243.110519	1276.136597	2738.920410	1582.325073	20.931902
243.489578	1279.879028	2854.095703	1601.832764	20.451679
243.868607	1280.524292	2936.471680	1616.135620	20.267029
244.247604	1278.610107	2992.048340	1626.911255	20.327616
244.626541	1278.545654	3030.138916	1633.256226	20.250738
245.005493	1277.706665	3060.357910	1637.837402	20.201973
245.384369	1278.093872	3082.252930	1646.074951	20.396265
245.763229	1277.039917	3105.395264	1652.161743	20.516899
246.142059	1276.695801	3143.271240	1660.248779	20.548485
246.520859	1278.373413	3211.688232	1672.938599	20.408739
246.899612	1283.535278	3337.144531	1697.565186	20.161083
247.278336	1285.127075	3500.261475	1733.440674	20.238665
247.657043	1286.783081	3670.949219	1771.918335	20.348217
248.035690	1292.074097	3825.097412	1804.610596	20.234179
248.414322	1294.633545	3956.468994	1833.173340	20.231897
248.792908	1296.332642	4057.556885	1852.917603	20.157181
249.171478	1296.440308	4134.491211	1868.274536	20.148838
249.550003	1297.472656	4170.065430	1870.296387	19.941000
249.928482	1299.150269	4163.354980	1867.435547	19.840946
250.306961	1300.655762	4105.949707	1855.046875	19.762318
250.685364	1299.193237	3984.687500	1827.645752	19.678036
251.063782	1295.364746	3801.374268	1790.415283	19.754536
251.442123	1292.891357	3596.402344	1745.743286	19.659204
251.820450	1288.761841	3427.220215	1712.190674	19.800657
252.198761	1285.148438	3321.271729	1690.101929	19.888456
252.576996	1283.771973	3252.962402	1676.229248	19.929880
252.955246	1284.266724	3202.784180	1668.937988	20.050444
253.333420	1282.395508	3155.960938	1659.796997	20.143492
253.711578	1282.094360	3120.386719	1657.022583	20.395462
254.089706	1281.234009	3094.641602	1652.978882	20.499798
254.467804	1278.696167	3074.488281	1650.010986	20.676937
254.845871	1278.954224	3059.067383	1646.655762	20.656076
255.223877	1279.362915	3035.322754	1642.289429	20.668270
255.601898	1279.986572	3003.275635	1634.976685	20.599569
255.979828	1278.072266	2957.786133	1625.878784	20.706295
256.357727	1275.921509	2903.155518	1614.995728	20.837460
256.735657	1277.986328	2861.386719	1606.758179	20.763659
257.113525	1275.469849	2853.579346	1603.661011	20.796476
257.491333	1275.814087	2883.432617	1611.554321	20.884323
257.869110	1277.921875	2942.601318	1623.082764	20.734375
258.246887	1279.448975	3030.805664	1640.418335	20.610842
258.624573	1278.932617	3157.036133	1664.270630	20.517401
259.002289	1279.792969	3341.295898	1701.737793	20.467825
259.379944	1281.255493	3600.080322	1755.572388	20.455055
259.757538	1282.567505	3934.035400	1824.312012	20.431871
260.135162	1288.331665	4299.199219	1895.116455	20.153154
260.512665	1292.977417	4625.433105	1961.705200	20.067118
260.890228	1291.622437	4865.914551	2009.668335	20.089178
261.267700	1292.805298	5017.804199	2039.542969	20.046654
261.645142	1295.235718	5103.686035	2053.480225	19.909529
262.022552	1294.805542	5155.219238	2061.244385	19.853802
262.399994	1293.084839	5181.330078	2065.094482	19.854963
262.777313	1296.268066	5170.166992	2062.406006	19.776920
263.154602	1296.010010	5093.103516	2044.683472	19.717014
263.531921	1295.536865	4939.601074	2008.356323	19.561111
263.909149	1293.988281	4691.892578	1957.769653	19.535023
264.286377	1290.611450	4405.685547	1898.493652	19.514212
264.663574	1287.385254	4147.826172	1844.873779	19.489601
265.040710	1289.364136	3970.470947	1806.783203	19.298710
265.417816	1288.245605	3871.103271	1787.769897	19.339985
265.794891	1288.611206	3844.691650	1783.898560	19.376829
266.171936	1288.976929	3865.167236	1787.748413	19.360815
266.548950	1289.170532	3915.560791	1795.749512	19.288033
266.925934	1287.621948	3973.847412	1805.341919	19.273138
267.302887	1286.912231	4037.941162	1816.870361	19.263998
267.679810	1286.202515	4101.884766	1828.484741	19.259356
268.056671	1288.869385	4178.711426	1842.077759	19.143204
268.433502	1289.901733	4260.613770	1855.369873	19.034769
268.810333	1290.138184	4344.064453	1868.812378	18.948532
269.187073	1288.159546	4420.568848	1882.061035	18.959894
269.563843	1291.127808	4495.244629	1892.406372	18.765814
269.940521	1290.525513	4550.649414	1899.891357	18.691492
270.317200	1290.826538	4602.333496	1907.268799	18.615158
270.693848	1291.837402	4668.664063	1921.291870	18.640413
271.070435	1295.063599	4802.809570	1944.326904	18.509417
271.447021	1298.569458	4975.347168	1976.201660	18.430056
271.823547	1300.892456	5153.003418	2008.420654	18.367285
272.200043	1301.236450	5297.623535	2031.498901	18.273066
272.576538	1301.731201	5417.380371	2057.007568	18.351330
272.952972	1303.602417	5524.404297	2076.128174	18.302820
273.329346	1305.452026	5626.266602	2094.969482	18.272423
273.705688	1305.495117	5704.082520	2110.670410	18.305315
274.082062	1306.118896	5763.487793	2123.446045	18.336536
274.458344	1304.914429	5788.759766	2126.156006	18.315565
274.834595	1307.861206	5770.413574	2119.424072	18.186069
275.210846	1304.936035	5690.102051	2101.830566	18.172506
275.587006	1301.774292	5586.046387	2080.644775	18.179762
275.963165	1300.913818	5493.390137	2065.137695	18.228458
276.339294	1300.182495	5446.760742	2055.888916	18.224821
276.715393	1300.763184	5423.337891	2046.339722	18.085217
277.091461	1301.064331	5414.713867	2042.425293	18.021976
277.467438	1302.591553	5411.982422	2041.715576	17.986219
277.843445	1302.526978	5416.176270	2038.532349	17.891787
278.219452	1303.602417	5431.188965	2035.843750	17.740181
278.595337	1304.226196	5454.288574	2042.769409	17.795954
278.971191	1304.570313	5486.980957	2047.049561	17.752424
279.347046	1307.344849	5512.983887	2051.673828	17.698357
279.722870	1309.753784	5537.567871	2054.426758	17.613665
280.098663	1310.377441	5561.312988	2057.222900	17.568968
280.474396	1310.979614	5597.123535	2061.653320	17.513964
280.850098	1312.055054	5649.495605	2072.041748	17.521547
281.225800	1313.108887	5724.945801	2085.677734	17.511274
281.601440	1313.517578	5833.131348	2102.389648	17.454412
281.977051	1313.797119	5982.203613	2129.790771	17.479063
282.352600	1314.700439	6137.964355	2159.837402	17.522097
282.728149	1317.496582	6282.090332	2185.646973	17.486837
283.103668	1317.475098	6392.448242	2204.616943	17.480721
283.479156	1319.604370	6480.501953	2222.318359	17.491415
283.854553	1319.668945	6564.039551	2241.869141	17.584574
284.229950	1320.851929	6661.018555	2256.258057	17.516422
284.605347	1322.895142	6765.247070	2271.550293	17.430977
284.980652	1320.787354	6863.861328	2289.746094	17.480530
285.355988	1320.916382	6953.184570	2305.059570	17.473301
285.731201	1319.260254	7031.666992	2317.792725	17.480066
286.106445	1319.776489	7098.621582	2329.213379	17.467796
286.481659	1320.228027	7166.027832	2341.214844	17.465305
286.856781	1320.464722	7232.853516	2350.656982	17.424299
287.231934	1318.894653	7298.947266	2361.217285	17.429991
287.607025	1316.464233	7346.716797	2365.411377	17.394747
287.982056	1316.894409	7365.557617	2364.572510	17.320822
288.357086	1315.732910	7357.599609	2366.292969	17.388004
288.732086	1311.667969	7326.048340	2364.249756	17.501085
289.107025	1310.850708	7290.688965	2358.206055	17.514776
289.481934	1310.571045	7261.221680	2351.882568	17.499121
289.856842	1311.818359	7236.639160	2346.849854	17.469414
290.231659	1311.022583	7237.713867	2344.957275	17.445395
290.606506	1311.689331	7248.296387	2345.581055	17.415533
290.981262	1312.184082	7264.535645	2347.000732	17.385006
291.355988	1309.947144	7285.590820	2350.807617	17.418383
291.730713	1311.646362	7312.411133	2361.905518	17.502089
292.105377	1310.377319	7339.360840	2366.723389	17.521132
292.480011	1310.484985	7357.492188	2371.906494	17.552839
292.854614	1312.549683	7364.181152	2376.810547	17.586346
293.229187	1313.861694	7380.162109	2383.607178	17.634232
293.603729	1313.517578	7405.820801	2398.727539	17.812803
293.978241	1312.506714	7443.051270	2419.375244	18.054979
294.352692	1314.033691	7473.033203	2441.012207	18.298079
294.727081	1313.603638	7494.950195	2462.778320	18.591009
295.101501	1311.560425	7516.952637	2485.275635	18.914440
295.475830	1314.722168	7571.195801	2517.258057	19.220665
295.850189	1317.367676	7669.617676	2555.822021	19.496309
296.224457	1320.572266	7832.454590	2613.979492	19.862263
296.598694	1323.067261	8046.718262	2681.471924	20.203379
296.972931	1324.938354	8301.458984	2760.062256	20.570768
297.347107	1326.938599	8538.541016	2831.383057	20.861444
297.721283	1328.874390	8714.519531	2890.895752	21.149424
298.095367	1331.175781	8806.853516	2929.997803	21.386984
298.469452	1331.648926	8820.446289	2953.290771	21.654236
298.843475	1328.057129	8795.217773	2964.238281	21.911692
299.217529	1329.046387	8756.138672	2973.013428	22.134733
299.591492	1328.444214	8698.583984	2975.874268	22.352766
299.965424	1325.196533	8618.014648	2971.292969	22.571472
300.339325	1323.841553	8485.374023	2952.903809	22.747398
300.713196	1320.120605	8301.758789	2919.630615	22.910240
301.087036	1318.830078	8080.785645	2879.926758	23.086468
301.460815	1318.313965	7865.405762	2840.911377	23.256088
301.834564	1318.830200	7684.758301	2809.767822	23.420586
302.208282	1315.969482	7537.729980	2786.324219	23.632454
302.582001	1314.270386	7416.811035	2762.105957	23.725128
302.955658	1316.012573	7311.185547	2743.350830	23.808125
303.329254	1312.506714	7221.174805	2726.359375	23.928450
303.702820	1310.958130	7142.068359	2715.239746	24.082577
304.076416	1310.807495	7075.995117	2707.131104	24.219917
304.449921	1307.430786	7021.515137	2697.215820	24.322094
304.823395	1309.603027	6969.917480	2693.473389	24.448648
305.196838	1308.527588	6920.384277	2683.773193	24.506073
305.570251	1308.183594	6865.559570	2674.912109	24.593054
305.943604	1304.828369	6805.509766	2664.738770	24.722580
306.316986	1304.312256	6761.246582	2657.340088	24.794651
306.690277	1306.420044	6728.404297	2657.447510	24.917583
307.063507	1305.581177	6712.079590	2661.448242	25.078468
307.436768	1305.989746	6721.134277	2669.083496	25.171881
307.809937	1307.258789	6748.900391	2677.729736	25.184881
308.183136	1308.011597	6803.165527	2692.957520	25.203041
308.556244	1310.054810	6877.411133	2719.154297	25.310028
308.929321	1309.172974	6967.895508	2747.630859	25.420187
309.302399	1310.226929	7060.530762	2778.086182	25.526638
309.675446	1309.043945	7157.489258	2809.165039	25.649912
310.048401	1308.054565	7253.113770	2838.674072	25.746077
310.421356	1309.237427	7348.910645	2870.032959	25.842382
310.794281	1307.839355	7451.095215	2899.864502	25.915007
311.167145	1308.248047	7564.163574	2929.782227	25.920013
311.539978	1312.119507	7661.917480	2961.656982	25.977795
311.912781	1313.324097	7733.152832	2981.444580	25.983879
312.285553	1312.012207	7749.498047	2992.542725	26.105387
312.658295	1312.399292	7722.591797	2987.574463	26.132994
313.031006	1312.227295	7670.456055	2973.637207	26.130075
313.403656	1311.839966	7615.524902	2959.786133	26.142584
313.776276	1313.603638	7565.497070	2947.418945	26.133127
314.148865	1316.313599	7539.773438	2940.106445	26.091480
314.521454	1316.442627	7537.837402	2935.933838	26.031000
314.893982	1316.958862	7538.117188	2936.084229	26.026108
315.266449	1319.109619	7502.563965	2929.954590	26.050892
315.638885	1316.851440	7438.685547	2911.220947	26.043985
316.011322	1317.281494	7355.319824	2893.476807	26.104427
316.383667	1318.270752	7282.773438	2873.280762	26.071075
316.756042	1318.722534	7224.507813	2858.031738	26.064430
317.128326	1319.754883	7172.802734	2847.449707	26.100843
317.500610	1316.872803	7118.904297	2834.394287	26.155005
317.872833	1315.517700	7058.530762	2819.854980	26.194216
318.245087	1312.592651	6980.606445	2798.153076	26.209541
318.617218	1311.775391	6885.283203	2775.548096	26.263042
