Jaz Data File
++++++++++++++++++++++++++++++++++++
Date: Thu Dec 19 19:55:21 2019
User: jaz
Dark Spectrum Present: Yes
Reference Spectrum Present: Yes
Processed Spectrum Present: Yes
Spectrometers: JAZA2928
Integration Time (usec): 32200 (JAZA2928)
Spectra Averaged: 10 (JAZA2928)
Boxcar Smoothing: 5 (JAZA2928)
Correct for Electrical Dark: No (JAZA2928)
Strobe/Lamp Enabled: Yes (JAZA2928)
Correct for Detector Non-linearity: No (JAZA2928)
Correct for Stray Light: No (JAZA2928)
Number of Pixels in Processed Spectrum: 2048
>>>>>Begin Processed Spectral Data<<<<<
W	D	R	S	P
190.104553	0.000000	0.000000	0.000000	0.000000
190.488098	0.000000	0.000000	0.000000	0.000000
190.871613	1222.216064	1221.506226	1211.806030	1466.534790
191.255096	1238.540649	1233.335571	1221.269531	331.812866
191.638535	0.000000	0.000000	0.000000	0.000000
192.021942	1036.773560	1030.450195	1022.105103	231.972351
192.405334	1155.648560	1147.669067	1137.237671	230.727570
192.788696	1274.652466	1262.909058	1253.918823	176.555588
193.172012	1281.298462	1269.963745	1260.564819	182.921570
193.555313	1285.621704	1275.921387	1267.210815	189.796768
193.938568	1287.686401	1279.212036	1270.178833	206.594452
194.321793	1290.460938	1281.040405	1274.846191	165.752274
194.704987	1289.019897	1284.245117	1279.534790	198.650131
195.088150	1289.234985	1288.267090	1281.771606	771.093445
195.471298	1289.493042	1288.654419	1285.363525	492.416290
195.854401	1289.772705	1286.008911	1285.858276	104.002205
196.237457	1290.568481	1284.460205	1286.610962	64.789467
196.620499	1288.439331	1282.847168	1288.245605	3.464233
197.003494	1284.438721	1283.922485	1291.106079	-1291.534668
197.386475	1282.524536	1283.363403	1290.503906	951.207825
197.769424	1281.212402	1279.771484	1288.546753	-509.005432
198.152344	1276.953857	1280.287720	1288.697266	352.246338
198.535217	1276.007568	1284.933472	1287.643433	130.360641
198.918076	1276.867920	1284.051636	1286.481934	133.830658
199.300903	1277.900269	1285.406616	1286.847656	119.197617
199.683670	1277.362671	1288.159668	1286.051880	80.478012
200.066422	1276.029175	1290.396362	1284.159058	56.586460
200.449142	1272.996338	1293.257080	1285.858398	63.482674
200.831848	1272.308105	1295.923950	1283.858154	48.908051
201.214508	1273.082520	1297.494019	1280.481201	30.308182
201.597137	1270.372437	1297.322144	1281.406128	40.941788
201.979736	1270.437012	1300.462280	1282.503052	40.186287
202.362274	1269.383057	1301.989380	1281.341675	36.675762
202.744827	1266.500977	1300.075073	1280.567261	41.896240
203.127319	1266.672974	1301.387085	1278.115356	32.961761
203.509796	1265.511597	1299.752441	1274.824707	27.198833
203.892227	1264.479126	1296.504761	1272.759888	25.856667
204.274643	1262.263794	1295.128174	1271.942505	29.450460
204.657013	1263.597534	1293.515137	1270.888672	24.370729
205.039352	1263.640503	1292.095581	1271.856445	28.873379
205.421661	1264.092163	1289.751221	1270.544556	25.146646
205.803940	1264.909424	1291.364380	1267.812988	10.975503
206.186188	1265.898804	1292.547241	1266.286011	1.453020
206.568405	1264.973755	1292.353638	1264.909302	-0.235403
206.950592	1264.758911	1290.504028	1263.597534	-4.511057
207.332748	1262.328491	1288.654297	1263.640503	4.983747
207.714859	1261.661621	1287.793945	1265.705200	15.473476
208.096939	1260.478760	1288.116577	1266.415039	21.478828
208.478989	1260.220581	1289.772583	1267.296875	23.945227
208.861008	1258.392456	1290.697388	1265.318115	21.438396
209.243011	1256.542847	1291.041504	1265.963379	27.306953
209.624969	1254.563965	1292.740723	1265.103027	27.605965
210.006897	1256.112671	1290.503906	1265.124512	26.203888
210.388794	1252.155273	1290.288940	1264.651367	32.769192
210.770645	1254.585693	1292.611816	1266.156982	30.429842
211.152481	1253.273560	1292.353638	1266.823608	34.672523
211.534286	1252.133789	1291.041626	1267.490356	39.469086
211.916061	1251.208862	1291.536255	1267.232300	39.733383
212.297791	1251.488403	1293.773193	1266.823730	36.266769
212.679489	1250.240967	1292.418213	1265.081543	35.186214
213.061157	1249.832275	1292.224731	1264.952515	35.667286
213.442795	1248.907471	1290.891113	1264.737427	37.705055
213.824402	1249.208618	1290.891113	1263.704956	34.778000
214.205963	1249.251587	1292.998901	1265.145996	36.332310
214.587524	1250.778687	1292.697754	1265.554688	35.248878
214.969025	1250.004395	1290.955688	1265.189087	37.079884
215.350510	1251.638916	1293.730347	1263.920044	29.177263
215.731949	1254.628540	1297.343628	1265.748291	26.032373
216.113358	1253.961792	1301.021484	1266.393433	26.416748
216.494736	1254.542603	1302.505493	1265.941772	23.766645
216.876083	1258.156006	1306.893066	1268.953003	22.153566
217.257401	1258.543091	1309.237427	1269.533691	21.680136
217.638702	1260.457275	1314.420898	1269.791870	17.297939
218.019943	1260.607910	1316.421265	1272.308228	20.963293
218.401169	1260.048706	1319.152710	1273.598633	22.925566
218.782349	1262.521973	1321.927246	1274.996582	20.999161
219.163498	1263.059692	1323.755371	1275.598755	20.658905
219.544632	1262.479004	1325.282593	1277.427002	23.801184
219.925705	1262.070313	1328.229248	1275.340698	20.058342
220.306778	1261.704712	1329.971313	1275.534302	20.258207
220.687805	1260.328247	1330.100464	1275.426880	21.639893
221.068802	1259.102417	1331.304810	1276.717285	24.396517
221.449738	1259.575439	1335.176270	1277.491699	23.698496
221.830673	1260.844482	1340.144653	1278.136841	21.806206
222.211563	1260.564819	1345.908691	1280.782349	23.689491
222.592438	1260.005615	1350.704956	1281.556641	23.760950
222.973267	1257.661133	1356.189453	1283.750488	26.479042
223.354065	1257.489136	1360.684570	1286.030396	27.657482
223.734848	1257.983765	1367.545776	1288.933960	28.249022
224.115555	1257.058838	1371.632324	1291.643921	30.185940
224.496262	1259.274292	1378.923584	1294.590576	29.516500
224.876923	1259.166748	1387.118164	1298.505005	30.744682
225.257568	1258.413940	1396.839844	1299.107300	29.397215
225.638168	1257.467651	1405.399902	1301.623657	29.848803
226.018723	1255.510376	1415.358154	1305.344604	31.176054
226.399277	1256.671875	1429.618042	1308.893433	30.195267
226.779785	1256.284668	1448.308594	1314.635986	30.387526
227.160263	1256.564331	1469.364868	1318.916138	29.300587
227.540695	1255.811523	1498.056519	1328.207642	29.885496
227.921112	1255.682495	1535.050659	1339.585449	30.033112
228.301483	1256.327637	1587.142944	1355.867065	30.089125
228.681824	1255.940552	1654.613770	1376.901855	30.340965
229.062134	1257.187988	1742.345215	1404.109375	30.283253
229.442413	1256.822388	1835.195313	1433.618530	30.567846
229.822647	1256.736450	1917.162231	1460.180786	30.805027
230.202881	1256.370850	1976.868774	1478.204590	30.788950
230.583054	1255.919067	2022.057129	1491.023315	30.686930
230.963196	1257.231079	2059.610352	1501.003174	30.381155
231.343292	1256.671875	2089.786133	1512.811035	30.744781
231.723404	1257.381592	2115.445068	1519.285034	30.522619
232.103439	1258.865601	2118.628174	1519.026855	30.259663
232.483459	1259.683105	2104.992188	1514.725098	30.171448
232.863434	1258.586060	2070.450195	1504.702637	30.314995
233.243393	1258.285034	2015.389771	1488.291992	30.379807
233.623306	1259.682983	1957.339478	1469.085327	30.015106
234.003174	1262.436035	1916.216064	1456.180542	29.634510
234.383041	1264.672852	1894.191772	1448.265503	29.163961
234.762848	1262.823120	1883.179688	1444.695190	29.317345
235.142639	1262.758667	1874.318359	1442.200317	29.341640
235.522385	1263.877075	1869.134888	1436.522217	28.524231
235.902115	1263.984619	1861.284424	1433.747559	28.421730
236.281799	1261.790894	1867.285156	1434.693970	28.555693
236.661438	1260.521851	1877.587524	1435.726440	28.393183
237.041077	1259.962646	1886.642456	1434.801636	27.899254
237.420654	1258.521606	1899.052368	1435.554199	27.638422
237.800217	1259.618530	1908.171875	1439.318115	27.707758
238.179733	1258.392456	1913.032715	1439.554565	27.673536
238.559219	1255.639526	1920.151855	1438.866333	27.573124
238.938690	1257.015991	1925.270630	1441.232300	27.566784
239.318100	1257.059082	1934.110840	1442.458252	27.383308
239.697510	1257.037476	1949.876099	1447.770996	27.529285
240.076859	1259.962524	1975.535156	1454.567383	27.195683
240.456177	1263.360840	2010.206177	1461.987671	26.595444
240.835464	1266.350464	2052.361816	1473.666504	26.375706
241.214722	1268.243286	2118.499023	1490.141724	26.097847
241.593948	1271.835083	2203.584961	1512.423950	25.821186
241.973129	1272.007080	2313.103760	1541.223389	25.858915
242.352295	1273.104004	2449.937988	1574.969482	25.650642
242.731415	1274.028809	2594.773438	1617.985474	26.042633
243.110519	1276.136597	2738.920410	1651.860596	25.685545
243.489578	1279.879028	2854.095703	1682.660034	25.586123
243.868607	1280.524292	2936.471680	1703.759399	25.558487
244.247604	1278.610107	2992.048340	1715.610474	25.504297
244.626541	1278.545654	3030.138916	1726.364380	25.566364
245.005493	1277.706665	3060.357910	1732.730835	25.525137
245.384369	1278.093872	3082.252930	1736.731201	25.421114
245.763229	1277.039917	3105.395264	1741.097290	25.381136
246.142059	1276.695801	3143.271240	1749.657715	25.338484
246.520859	1278.373413	3211.688232	1766.261841	25.235849
246.899612	1283.535278	3337.144531	1793.146851	24.815409
247.278336	1285.127075	3500.261475	1836.119873	24.874014
247.657043	1286.783081	3670.949219	1877.544434	24.778532
248.035690	1292.074097	3825.097412	1914.903931	24.588396
248.414322	1294.633545	3956.468994	1948.413330	24.561239
248.792908	1296.332642	4057.556885	1975.191040	24.585415
249.171478	1296.440308	4134.491211	1993.580200	24.564039
249.550003	1297.472656	4170.065430	2005.366821	24.643040
249.928482	1299.150269	4163.354980	2003.861328	24.604076
250.306961	1300.655762	4105.949707	1987.493408	24.483625
250.685364	1299.193237	3984.687500	1957.037964	24.496227
251.063782	1295.364746	3801.374268	1910.236694	24.535898
251.442123	1292.891357	3596.402344	1858.273071	24.544346
251.820450	1288.761841	3427.220215	1817.536987	24.726931
252.198761	1285.148438	3321.271729	1791.813354	24.883804
252.576996	1283.771973	3252.962402	1775.058594	24.948660
252.955246	1284.266724	3202.784180	1759.422363	24.766813
253.333420	1282.395508	3155.960938	1750.517944	24.985647
253.711578	1282.094360	3120.386719	1741.290894	24.979515
254.089706	1281.234009	3094.641602	1733.010254	24.913111
254.467804	1278.696167	3074.488281	1729.827393	25.121572
254.845871	1278.954224	3059.067383	1725.095581	25.062529
255.223877	1279.362915	3035.322754	1720.105591	25.099815
255.601898	1279.986572	3003.275635	1711.179810	25.021526
255.979828	1278.072266	2957.786133	1698.317993	25.018888
256.357727	1275.921509	2903.155518	1683.541870	25.049892
256.735657	1277.986328	2861.386719	1672.766479	24.932426
257.113525	1275.469849	2853.579346	1671.906128	25.120962
257.491333	1275.814087	2883.432617	1678.208130	25.030443
257.869110	1277.921875	2942.601318	1692.897949	24.928288
258.246887	1279.448975	3030.805664	1718.470825	25.067530
258.624573	1278.932617	3157.036133	1749.937378	25.078743
259.002289	1279.792969	3341.295898	1797.943237	25.134588
259.379944	1281.255493	3600.080322	1860.918701	24.998146
259.757538	1282.567505	3934.035400	1942.477051	24.888462
260.135162	1288.331665	4299.199219	2030.703125	24.656397
260.512665	1292.977417	4625.433105	2110.992920	24.546928
260.890228	1291.622437	4865.914551	2168.161133	24.523422
261.267700	1292.805298	5017.804199	2203.197510	24.440065
261.645142	1295.235718	5103.686035	2224.060547	24.388525
262.022552	1294.805542	5155.219238	2236.857910	24.402887
262.399994	1293.084839	5181.330078	2236.922363	24.274126
262.777313	1296.268066	5170.166992	2231.136963	24.132505
263.154602	1296.010010	5093.103516	2207.155273	23.995861
263.531921	1295.536865	4939.601074	2169.172119	23.974201
263.909149	1293.988281	4691.892578	2109.078369	23.988024
264.286377	1290.611450	4405.685547	2036.919067	23.957941
264.663574	1287.385254	4147.826172	1972.158203	23.939419
265.040710	1289.364136	3970.470947	1927.077393	23.785446
265.417816	1288.245605	3871.103271	1900.988281	23.723440
265.794891	1288.611206	3844.691650	1892.127075	23.610989
266.171936	1288.976929	3865.167236	1894.621948	23.509327
266.548950	1289.170532	3915.560791	1905.806152	23.478447
266.925934	1287.621948	3973.847412	1916.796875	23.422266
267.302887	1286.912231	4037.941162	1933.142700	23.490501
267.679810	1286.202515	4101.884766	1944.369995	23.375063
268.056671	1288.869385	4178.711426	1960.350464	23.235909
268.433502	1289.901733	4260.613770	1980.632690	23.251362
268.810333	1290.138184	4344.064453	1996.785034	23.138962
269.187073	1288.159546	4420.568848	2013.453613	23.154512
269.563843	1291.127808	4495.244629	2031.176514	23.096809
269.940521	1290.525513	4550.649414	2042.231323	23.057583
270.317200	1290.826538	4602.333496	2050.103516	22.928444
270.693848	1291.837402	4668.664063	2065.954834	22.924406
271.070435	1295.063599	4802.809570	2094.001465	22.776388
271.447021	1298.569458	4975.347168	2131.210449	22.645943
271.823547	1300.892456	5153.003418	2171.064941	22.589499
272.200043	1301.236450	5297.623535	2199.541260	22.477922
272.576538	1301.731201	5417.380371	2225.329590	22.441133
272.952972	1303.602417	5524.404297	2249.741211	22.416092
273.329346	1305.452026	5626.266602	2268.883301	22.297445
273.705688	1305.495117	5704.082520	2285.079102	22.270422
274.082062	1306.118896	5763.487793	2294.628662	22.176977
274.458344	1304.914429	5788.759766	2301.468018	22.225424
274.834595	1307.861206	5770.413574	2296.478271	22.153624
275.210846	1304.936035	5690.102051	2277.228516	22.172308
275.587006	1301.774292	5586.046387	2251.203857	22.160814
275.963165	1300.913818	5493.390137	2232.599365	22.222797
276.339294	1300.182495	5446.760742	2220.318115	22.190239
276.715393	1300.763184	5423.337891	2212.295166	22.110744
277.091461	1301.064331	5414.713867	2207.821777	22.042652
277.467438	1302.591553	5411.982422	2209.284424	22.063925
277.843445	1302.526978	5416.176270	2211.456787	22.095461
278.219452	1303.602417	5431.188965	2214.532471	22.069315
278.595337	1304.226196	5454.288574	2219.049072	22.043592
278.971191	1304.570313	5486.980957	2222.103271	21.937897
279.347046	1307.344849	5512.983887	2225.566162	21.833097
279.722870	1309.753784	5537.567871	2227.802979	21.714512
280.098663	1310.377441	5561.312988	2228.727539	21.603481
280.474396	1310.979614	5597.123535	2237.804199	21.623739
280.850098	1312.055054	5649.495605	2246.945068	21.553957
281.225800	1313.108887	5724.945801	2262.302002	21.514692
281.601440	1313.517578	5833.131348	2284.154053	21.476093
281.977051	1313.797119	5982.203613	2311.318604	21.367495
282.352600	1314.700439	6137.964355	2344.441162	21.349459
282.728149	1317.496582	6282.090332	2372.638184	21.253332
283.103668	1317.475098	6392.448242	2396.597900	21.263617
283.479156	1319.604370	6480.501953	2415.094971	21.226746
283.854553	1319.668945	6564.039551	2434.107910	21.250195
284.229950	1320.851929	6661.018555	2455.508545	21.247589
284.605347	1322.895142	6765.247070	2473.424805	21.140303
284.980652	1320.787354	6863.861328	2492.416504	21.136812
285.355988	1320.916382	6953.184570	2508.848633	21.091543
285.731201	1319.260254	7031.666992	2523.216064	21.076157
286.106445	1319.776489	7098.621582	2537.109863	21.065340
286.481659	1320.228027	7166.027832	2548.358643	21.008770
286.856781	1320.464722	7232.853516	2559.027100	20.948595
287.231934	1318.894653	7298.947266	2570.555176	20.930593
287.607025	1316.464233	7346.716797	2580.685303	20.964645
287.982056	1316.894409	7365.557617	2583.008301	20.932127
288.357086	1315.732910	7357.599609	2577.695557	20.886967
288.732086	1311.667969	7326.048340	2569.866943	20.919844
289.107025	1310.850708	7290.688965	2561.908936	20.921272
289.481934	1310.571045	7261.221680	2555.047852	20.913290
289.856842	1311.818359	7236.639160	2549.498779	20.889753
290.231659	1311.022583	7237.713867	2548.638428	20.882071
290.606506	1311.689331	7248.296387	2550.531006	20.867840
290.981262	1312.184082	7264.535645	2555.435059	20.886719
291.355988	1309.947144	7285.590820	2562.166748	20.955393
291.730713	1311.646362	7312.411133	2566.532959	20.912111
292.105377	1310.377319	7339.360840	2573.910400	20.957647
292.480011	1310.484985	7357.492188	2579.136719	20.979828
292.854614	1312.549683	7364.181152	2584.900879	21.024929
293.229187	1313.861694	7380.162109	2594.644287	21.113075
293.603729	1313.517578	7405.820801	2610.710693	21.292326
293.978241	1312.506714	7443.051270	2629.336426	21.479816
294.352692	1314.033691	7473.033203	2646.779541	21.639000
294.727081	1313.603638	7494.950195	2668.008057	21.911154
295.101501	1311.560425	7516.952637	2694.763916	22.290348
295.475830	1314.722168	7571.195801	2727.413086	22.579668
295.850189	1317.367676	7669.617676	2774.515869	22.939087
296.224457	1320.572266	7832.454590	2834.953369	23.255659
296.598694	1323.067261	8046.718262	2908.661377	23.582338
296.972931	1324.938354	8301.458984	2994.177246	23.926525
297.347107	1326.938599	8538.541016	3070.230225	24.173429
297.721283	1328.874390	8714.519531	3132.216309	24.416851
298.095367	1331.175781	8806.853516	3172.801758	24.634903
298.469452	1331.648926	8820.446289	3194.697021	24.877800
298.843475	1328.057129	8795.217773	3205.730469	25.145748
299.217529	1329.046387	8756.138672	3208.225586	25.301682
299.591492	1328.444214	8698.583984	3206.096191	25.476477
299.965424	1325.196533	8618.014648	3196.890625	25.664894
300.339325	1323.841553	8485.374023	3172.737305	25.817041
300.713196	1320.120605	8301.758789	3134.582031	25.989050
301.087036	1318.830078	8080.785645	3086.963135	26.148251
301.460815	1318.313965	7865.405762	3047.087402	26.405212
301.834564	1318.830200	7684.758301	3012.437744	26.604252
302.208282	1315.969482	7537.729980	2983.208496	26.796900
302.582001	1314.270386	7416.811035	2958.474121	26.942938
302.955658	1316.012573	7311.185547	2939.977295	27.087872
303.329254	1312.506714	7221.174805	2921.824463	27.236557
303.702820	1310.958130	7142.068359	2904.747070	27.332512
304.076416	1310.807495	7075.995117	2892.637939	27.437624
304.449921	1307.430786	7021.515137	2881.733398	27.551266
304.823395	1309.603027	6969.917480	2873.883057	27.635921
305.196838	1308.527588	6920.384277	2864.053711	27.718565
305.570251	1308.183594	6865.559570	2850.396240	27.750734
305.943604	1304.828369	6805.509766	2832.630615	27.774780
306.316986	1304.312256	6761.246582	2824.199463	27.852400
306.690277	1306.420044	6728.404297	2819.918945	27.914114
307.063507	1305.581177	6712.079590	2821.682617	28.042206
307.436768	1305.989746	6721.134277	2825.252930	28.055820
307.809937	1307.258789	6748.900391	2836.845947	28.108929
308.183136	1308.011597	6803.165527	2853.514648	28.124838
308.556244	1310.054810	6877.411133	2882.098877	28.236814
308.929321	1309.172974	6967.895508	2911.887451	28.322903
309.302399	1310.226929	7060.530762	2941.568604	28.369661
309.675446	1309.043945	7157.489258	2970.841309	28.414345
310.048401	1308.054565	7253.113770	3005.082031	28.545174
310.421356	1309.237427	7348.910645	3040.032715	28.657101
310.794281	1307.839355	7451.095215	3076.983643	28.798155
311.167145	1308.248047	7564.163574	3108.234375	28.772549
311.539978	1312.119507	7661.917480	3143.765869	28.845743
311.912781	1313.324097	7733.152832	3168.929932	28.904289
312.285553	1312.012207	7749.498047	3177.533447	28.979034
312.658295	1312.399292	7722.591797	3169.898193	28.977272
313.031006	1312.227295	7670.456055	3157.918213	29.028383
313.403656	1311.839966	7615.524902	3143.658447	29.059486
313.776276	1313.603638	7565.497070	3130.344727	29.059053
314.148865	1316.313599	7539.773438	3123.677246	29.041140
314.521454	1316.442627	7537.837402	3120.278809	28.994081
314.893982	1316.958862	7538.117188	3122.042725	29.015238
315.266449	1319.109619	7502.563965	3112.901611	29.009546
315.638885	1316.851440	7438.685547	3093.200195	29.016611
316.011322	1317.281494	7355.319824	3066.895996	28.976540
316.383667	1318.270752	7282.773438	3045.280518	28.954798
316.756042	1318.722534	7224.507813	3028.117188	28.944410
317.128326	1319.754883	7172.802734	3012.330322	28.917847
317.500610	1316.872803	7118.904297	2996.005615	28.940430
317.872833	1315.517700	7058.530762	2980.046631	28.983547
318.245087	1312.592651	6980.606445	2956.925537	29.010742
