Jaz Data File
++++++++++++++++++++++++++++++++++++
Date: Thu Dec 19 19:55:34 2019
User: jaz
Dark Spectrum Present: Yes
Reference Spectrum Present: Yes
Processed Spectrum Present: Yes
Spectrometers: JAZA2928
Integration Time (usec): 32200 (JAZA2928)
Spectra Averaged: 10 (JAZA2928)
Boxcar Smoothing: 5 (JAZA2928)
Correct for Electrical Dark: No (JAZA2928)
Strobe/Lamp Enabled: Yes (JAZA2928)
Correct for Detector Non-linearity: No (JAZA2928)
Correct for Stray Light: No (JAZA2928)
Number of Pixels in Processed Spectrum: 2048
>>>>>Begin Processed Spectral Data<<<<<
W	D	R	S	P
190.104553	0.000000	0.000000	0.000000	0.000000
190.488098	0.000000	0.000000	0.000000	0.000000
190.871613	1222.216064	1221.506226	1212.279053	1399.896851
191.255096	1238.540649	1233.335571	1230.260010	159.087708
191.638535	0.000000	0.000000	0.000000	0.000000
192.021942	1036.773560	1030.450195	1025.847656	172.786240
192.405334	1155.648560	1147.669067	1142.507324	164.687622
192.788696	1274.652466	1262.909058	1258.242065	139.741379
193.172012	1281.298462	1269.963745	1266.049438	134.533783
193.555313	1285.621704	1275.921387	1269.985352	161.194229
193.938568	1287.686401	1279.212036	1274.179321	159.387512
194.321793	1290.460938	1281.040405	1276.953979	143.377869
194.704987	1289.019897	1284.245117	1277.685181	237.387192
195.088150	1289.234985	1288.267090	1281.556641	793.303040
195.471298	1289.493042	1288.654419	1280.094116	1120.756958
195.854401	1289.772705	1286.008911	1280.889771	236.010117
196.237457	1290.568481	1284.460205	1279.018677	189.084518
196.620499	1288.439331	1282.847168	1278.523926	177.308945
197.003494	1284.438721	1283.922485	1277.599121	1324.899536
197.386475	1282.524536	1283.363403	1275.727905	-810.215393
197.769424	1281.212402	1279.771484	1275.857056	371.662140
198.152344	1276.953857	1280.287720	1275.749390	-36.128300
198.535217	1276.007568	1284.933472	1277.039917	11.565761
198.918076	1276.867920	1284.051636	1277.642090	10.776733
199.300903	1277.900269	1285.406616	1276.158081	-23.209522
199.683670	1277.362671	1288.159668	1277.039917	-2.989293
200.066422	1276.029175	1290.396362	1278.459473	16.915613
200.449142	1272.996338	1293.257080	1280.158569	35.350292
200.831848	1272.308105	1295.923950	1279.663940	31.147881
201.214508	1273.082520	1297.494019	1281.191040	33.215988
201.597137	1270.372437	1297.322144	1280.416748	37.270576
201.979736	1270.437012	1300.462280	1279.190918	29.155130
202.362274	1269.383057	1301.989380	1275.426880	18.535740
202.744827	1266.500977	1300.075073	1273.813721	21.780910
203.127319	1266.672974	1301.387085	1273.706177	20.260357
203.509796	1265.511597	1299.752441	1271.705933	18.090488
203.892227	1264.479126	1296.504761	1269.899292	16.924461
204.274643	1262.263794	1295.128174	1265.318115	9.293714
204.657013	1263.597534	1293.515137	1262.952271	-2.156803
205.039352	1263.640503	1292.095581	1260.392700	-11.413790
205.421661	1264.092163	1289.751221	1258.629028	-21.291252
205.803940	1264.909424	1291.364380	1257.618164	-27.561035
206.186188	1265.898804	1292.547241	1256.327637	-35.916428
206.568405	1264.973755	1292.353638	1257.037354	-28.986250
206.950592	1264.758911	1290.504028	1255.316895	-36.674980
207.332748	1262.328491	1288.654297	1250.907715	-43.382439
207.714859	1261.661621	1287.793945	1251.165894	-40.163773
208.096939	1260.478760	1288.116577	1252.026245	-30.583149
208.478989	1260.220581	1289.772583	1258.069946	-7.277459
208.861008	1258.392456	1290.697388	1259.016357	1.931288
209.243011	1256.542847	1291.041504	1261.339233	13.903111
209.624969	1254.563965	1292.740723	1261.425171	17.972208
210.006897	1256.112671	1290.503906	1261.876831	16.760550
210.388794	1252.155273	1290.288940	1262.479004	27.072483
210.770645	1254.585693	1292.611816	1263.403809	23.189625
211.152481	1253.273560	1292.353638	1264.909424	29.774414
211.534286	1252.133789	1291.041626	1266.737671	37.534550
211.916061	1251.208862	1291.536255	1269.017456	44.160042
212.297791	1251.488403	1293.773193	1269.727295	43.133457
212.679489	1250.240967	1292.418213	1267.318237	40.489296
213.061157	1249.832275	1292.224731	1267.060303	40.639370
213.442795	1248.907471	1290.891113	1267.425903	44.108685
213.824402	1249.208618	1290.891113	1266.716064	42.001915
214.205963	1249.251587	1292.998901	1268.544312	44.100365
214.587524	1250.778687	1292.697754	1269.555176	44.792240
214.969025	1250.004395	1290.955688	1270.996216	51.260460
215.350510	1251.638916	1293.730347	1270.544556	44.915649
215.731949	1254.628540	1297.343628	1268.716309	32.980778
216.113358	1253.961792	1301.021484	1268.415161	30.712843
216.494736	1254.542603	1302.505493	1269.576660	31.345186
216.876083	1258.156006	1306.893066	1268.608765	21.447248
217.257401	1258.543091	1309.237427	1269.748657	22.104177
217.638702	1260.457275	1314.420898	1271.576904	20.605787
218.019943	1260.607910	1316.421265	1272.308105	20.963076
218.401169	1260.048706	1319.152710	1272.974854	21.870173
218.782349	1262.521973	1321.927246	1273.039429	17.704584
219.163498	1263.059692	1323.755371	1270.802612	12.756954
219.544632	1262.479004	1325.282593	1270.200317	12.294382
219.925705	1262.070313	1328.229248	1273.577026	17.392532
220.306778	1261.704712	1329.971313	1272.243652	15.437916
220.687805	1260.328247	1330.100464	1269.576660	13.255152
221.068802	1259.102417	1331.304810	1270.135864	15.281277
221.449738	1259.575439	1335.176270	1270.974731	15.078263
221.830673	1260.844482	1340.144653	1270.544556	12.232097
222.211563	1260.564819	1345.908691	1270.329590	11.441677
222.592438	1260.005615	1350.704956	1268.845581	9.746449
222.973267	1257.661133	1356.189453	1271.082153	13.621485
223.354065	1257.489136	1360.684570	1273.749268	15.756639
223.734848	1257.983765	1367.545776	1276.652832	17.039726
224.115555	1257.058838	1371.632324	1277.212036	17.589758
224.496262	1259.274292	1378.923584	1280.610229	17.832064
224.876923	1259.166748	1387.118164	1282.825684	18.490562
225.257568	1258.413940	1396.839844	1284.653809	18.955894
225.638168	1257.467651	1405.399902	1286.976685	19.947668
226.018723	1255.510376	1415.358154	1289.901855	21.515144
226.399277	1256.671875	1429.618042	1295.795044	22.621588
226.779785	1256.284668	1448.308594	1300.698730	23.129442
227.160263	1256.564331	1469.364868	1306.118774	23.286804
227.540695	1255.811523	1498.056519	1312.657227	23.466204
227.921112	1255.682495	1535.050659	1322.378906	23.874020
228.301483	1256.327637	1587.142944	1334.616943	23.665564
228.681824	1255.940552	1654.613770	1351.651367	24.007336
229.062134	1257.187988	1742.345215	1372.944214	23.859528
229.442413	1256.822388	1835.195313	1394.495239	23.803474
229.822647	1256.736450	1917.162231	1412.282349	23.552366
230.202881	1256.370850	1976.868774	1426.284180	23.582766
230.583054	1255.919067	2022.057129	1437.791016	23.738796
230.963196	1257.231079	2059.610352	1444.845581	23.382271
231.343292	1256.671875	2089.786133	1452.760620	23.536837
231.723404	1257.381592	2115.445068	1457.729004	23.348787
232.103439	1258.865601	2118.628174	1457.578369	23.112516
232.483459	1259.683105	2104.992188	1453.018799	22.871597
232.863434	1258.586060	2070.450195	1441.770142	22.563391
233.243393	1258.285034	2015.389771	1428.628784	22.499365
233.623306	1259.682983	1957.339478	1415.207764	22.292458
234.003174	1262.436035	1916.216064	1402.883667	21.482399
234.383041	1264.672852	1894.191772	1394.452515	20.615688
234.762848	1262.823120	1883.179688	1388.516357	20.261450
235.142639	1262.758667	1874.318359	1387.806519	20.447367
235.522385	1263.877075	1869.134888	1383.203735	19.715014
235.902115	1263.984619	1861.284424	1381.827148	19.729210
236.281799	1261.790894	1867.285156	1381.547607	19.778339
236.661438	1260.521851	1877.587524	1383.891968	19.993029
237.041077	1259.962646	1886.642456	1388.107544	20.448225
237.420654	1258.521606	1899.052368	1389.720703	20.482872
237.800217	1259.618530	1908.171875	1390.968140	20.252707
238.179733	1258.392456	1913.032715	1393.076050	20.573681
238.559219	1255.639526	1920.151855	1397.184082	21.300516
238.938690	1257.015991	1925.270630	1398.302368	21.142595
239.318100	1257.059082	1934.110840	1400.087524	21.125185
239.697510	1257.037476	1949.876099	1404.905396	21.342333
240.076859	1259.962524	1975.535156	1409.981323	20.964859
240.456177	1263.360840	2010.206177	1416.283081	20.475758
240.835464	1266.350464	2052.361816	1425.467041	20.243547
241.214722	1268.243286	2118.499023	1434.349854	19.536072
241.593948	1271.835083	2203.584961	1450.351929	19.159309
241.973129	1272.007080	2313.103760	1469.838135	19.002178
242.352295	1273.104004	2449.937988	1495.798340	18.923174
242.731415	1274.028809	2594.773438	1521.435669	18.732376
243.110519	1276.136597	2738.920410	1548.686646	18.632284
243.489578	1279.879028	2854.095703	1569.721436	18.411850
243.868607	1280.524292	2936.471680	1584.884644	18.379831
244.247604	1278.610107	2992.048340	1594.520264	18.437206
244.626541	1278.545654	3030.138916	1601.940308	18.462885
245.005493	1277.706665	3060.357910	1604.306274	18.321005
245.384369	1278.093872	3082.252930	1609.080933	18.345781
245.763229	1277.039917	3105.395264	1613.038574	18.377098
246.142059	1276.695801	3143.271240	1623.512939	18.580399
246.520859	1278.373413	3211.688232	1637.170654	18.558655
246.899612	1283.535278	3337.144531	1662.162964	18.437181
247.278336	1285.127075	3500.261475	1692.661377	18.397724
247.657043	1286.783081	3670.949219	1724.191895	18.346407
248.035690	1292.074097	3825.097412	1752.948364	18.194632
248.414322	1294.633545	3956.468994	1778.005005	18.159328
248.792908	1296.332642	4057.556885	1800.739136	18.267496
249.171478	1296.440308	4134.491211	1818.956543	18.411095
249.550003	1297.472656	4170.065430	1824.527222	18.347694
249.928482	1299.150269	4163.354980	1824.484009	18.341349
250.306961	1300.655762	4105.949707	1810.826538	18.186001
250.685364	1299.193237	3984.687500	1788.694824	18.227617
251.063782	1295.364746	3801.374268	1752.216919	18.230265
251.442123	1292.891357	3596.402344	1713.201294	18.246492
251.820450	1288.761841	3427.220215	1682.294434	18.402630
252.198761	1285.148438	3321.271729	1660.893799	18.453959
252.576996	1283.771973	3252.962402	1650.677612	18.632309
252.955246	1284.266724	3202.784180	1636.761841	18.373308
253.333420	1282.395508	3155.960938	1625.878906	18.333141
253.711578	1282.094360	3120.386719	1619.684448	18.364330
254.089706	1281.234009	3094.641602	1615.425903	18.428946
254.467804	1278.696167	3074.488281	1612.479370	18.586962
254.845871	1278.954224	3059.067383	1606.887451	18.422045
255.223877	1279.362915	3035.322754	1601.080078	18.321442
255.601898	1279.986572	3003.275635	1596.176270	18.348036
255.979828	1278.072266	2957.786133	1587.056763	18.395067
256.357727	1275.921509	2903.155518	1577.829956	18.553474
256.735657	1277.986328	2861.386719	1569.377319	18.402863
257.113525	1275.469849	2853.579346	1569.011719	18.600855
257.491333	1275.814087	2883.432617	1576.582397	18.708935
257.869110	1277.921875	2942.601318	1589.422729	18.712362
258.246887	1279.448975	3030.805664	1605.725830	18.629950
258.624573	1278.932617	3157.036133	1629.728882	18.678217
259.002289	1279.792969	3341.295898	1666.270996	18.747391
259.379944	1281.255493	3600.080322	1715.890137	18.743748
259.757538	1282.567505	3934.035400	1776.220215	18.618092
260.135162	1288.331665	4299.199219	1841.260254	18.364428
260.512665	1292.977417	4625.433105	1899.826538	18.210268
260.890228	1291.622437	4865.914551	1941.874878	18.192482
261.267700	1292.805298	5017.804199	1968.738403	18.145861
261.645142	1295.235718	5103.686035	1982.137939	18.036266
262.022552	1294.805542	5155.219238	1989.751831	18.001862
262.399994	1293.084839	5181.330078	1991.321777	17.957638
262.777313	1296.268066	5170.166992	1986.159790	17.808718
263.154602	1296.010010	5093.103516	1970.781616	17.770741
263.531921	1295.536865	4939.601074	1939.767212	17.678896
263.909149	1293.988281	4691.892578	1893.481934	17.643042
264.286377	1290.611450	4405.685547	1841.002075	17.668619
264.663574	1287.385254	4147.826172	1793.749146	17.702303
265.040710	1289.364136	3970.470947	1758.949097	17.514593
265.417816	1288.245605	3871.103271	1739.333862	17.464697
265.794891	1288.611206	3844.691650	1733.892212	17.420460
266.171936	1288.976929	3865.167236	1732.988770	17.235210
266.548950	1289.170532	3915.560791	1741.527344	17.223518
266.925934	1287.621948	3973.847412	1749.894165	17.208986
267.302887	1286.912231	4037.941162	1760.734253	17.223448
267.679810	1286.202515	4101.884766	1772.327026	17.264893
268.056671	1288.869385	4178.711426	1787.253540	17.246069
268.433502	1289.901733	4260.613770	1801.578125	17.224033
268.810333	1290.138184	4344.064453	1815.278564	17.195581
269.187073	1288.159546	4420.568848	1828.334106	17.244699
269.563843	1291.127808	4495.244629	1839.690308	17.120554
269.940521	1290.525513	4550.649414	1848.293457	17.108795
270.317200	1290.826538	4602.333496	1861.413330	17.230427
270.693848	1291.837402	4668.664063	1875.049561	17.271013
271.070435	1295.063599	4802.809570	1895.740234	17.124290
271.447021	1298.569458	4975.347168	1923.184326	16.988104
271.823547	1300.892456	5153.003418	1950.004761	16.850821
272.200043	1301.236450	5297.623535	1969.942993	16.732777
272.576538	1301.731201	5417.380371	1987.730103	16.668060
272.952972	1303.602417	5524.404297	2002.678101	16.562628
273.329346	1305.452026	5626.266602	2018.594116	16.504807
273.705688	1305.495117	5704.082520	2030.660156	16.486317
274.082062	1306.118896	5763.487793	2038.725708	16.435858
274.458344	1304.914429	5788.759766	2039.973145	16.393490
274.834595	1307.861206	5770.413574	2033.370239	16.257715
275.210846	1304.936035	5690.102051	2022.078491	16.353827
275.587006	1301.774292	5586.046387	2003.689331	16.383532
275.963165	1300.913818	5493.390137	1990.913330	16.458040
276.339294	1300.182495	5446.760742	1983.235107	16.472681
276.715393	1300.763184	5423.337891	1978.890503	16.449121
277.091461	1301.064331	5414.713867	1977.427856	16.441935
277.467438	1302.591553	5411.982422	1976.158691	16.390924
277.843445	1302.526978	5416.176270	1977.513794	16.408466
278.219452	1303.602417	5431.188965	1982.052002	16.436956
278.595337	1304.226196	5454.288574	1986.009399	16.428263
278.971191	1304.570313	5486.980957	1988.353882	16.349030
279.347046	1307.344849	5512.983887	1992.182373	16.283792
279.722870	1309.753784	5537.567871	1992.655518	16.152597
280.098663	1310.377441	5561.312988	1992.289917	16.041468
280.474396	1310.979614	5597.123535	1996.591431	15.996005
280.850098	1312.055054	5649.495605	2006.420654	16.008648
281.225800	1313.108887	5724.945801	2017.948853	15.976111
281.601440	1313.517578	5833.131348	2033.757324	15.935869
281.977051	1313.797119	5982.203613	2056.125732	15.901114
282.352600	1314.700439	6137.964355	2078.042480	15.826256
282.728149	1317.496582	6282.090332	2100.496826	15.771688
283.103668	1317.475098	6392.448242	2119.122803	15.796098
283.479156	1319.604370	6480.501953	2130.414551	15.710643
283.854553	1319.668945	6564.039551	2143.405518	15.707063
284.229950	1320.851929	6661.018555	2160.568848	15.724545
284.605347	1322.895142	6765.247070	2175.818115	15.671955
284.980652	1320.787354	6863.861328	2188.959229	15.662281
285.355988	1320.916382	6953.184570	2203.004150	15.661325
285.731201	1319.260254	7031.666992	2217.220947	15.719481
286.106445	1319.776489	7098.621582	2226.899658	15.697309
286.481659	1320.228027	7166.027832	2236.814697	15.679406
286.856781	1320.464722	7232.853516	2247.117188	15.673064
287.231934	1318.894653	7298.947266	2254.451416	15.644624
287.607025	1316.464233	7346.716797	2262.688721	15.691292
287.982056	1316.894409	7365.557617	2267.700439	15.719275
288.357086	1315.732910	7357.599609	2263.613770	15.688543
288.732086	1311.667969	7326.048340	2256.172119	15.704098
289.107025	1310.850708	7290.688965	2248.364746	15.677916
289.481934	1310.571045	7261.221680	2242.256348	15.656865
289.856842	1311.818359	7236.639160	2235.180420	15.584641
290.231659	1311.022583	7237.713867	2232.835938	15.553591
290.606506	1311.689331	7248.296387	2233.136963	15.521453
290.981262	1312.184082	7264.535645	2235.244629	15.507494
291.355988	1309.947144	7285.590820	2243.976807	15.630612
291.730713	1311.646362	7312.411133	2249.826904	15.634350
292.105377	1310.377319	7339.360840	2256.946045	15.700304
292.480011	1310.484985	7357.492188	2265.656982	15.795780
292.854614	1312.549683	7364.181152	2275.980957	15.920191
293.229187	1313.861694	7380.162109	2287.939453	16.057196
293.603729	1313.517578	7405.820801	2302.736816	16.237196
293.978241	1312.506714	7443.051270	2320.352051	16.439735
294.352692	1314.033691	7473.033203	2340.999756	16.674234
294.727081	1313.603638	7494.950195	2361.797852	16.957376
295.101501	1311.560425	7516.952637	2385.435303	17.305511
295.475830	1314.722168	7571.195801	2409.201660	17.493553
295.850189	1317.367676	7669.617676	2446.152588	17.769844
296.224457	1320.572266	7832.454590	2495.061768	18.036098
296.598694	1323.067261	8046.718262	2557.413574	18.358274
296.972931	1324.938354	8301.458984	2625.787354	18.646101
297.347107	1326.938599	8538.541016	2690.806396	18.912132
297.721283	1328.874390	8714.519531	2743.178467	19.149364
298.095367	1331.175781	8806.853516	2780.817627	19.391443
298.469452	1331.648926	8820.446289	2806.390869	19.692640
298.843475	1328.057129	8795.217773	2817.489014	19.946428
299.217529	1329.046387	8756.138672	2826.049072	20.155973
299.591492	1328.444214	8698.583984	2833.146729	20.416201
299.965424	1325.196533	8618.014648	2832.695068	20.671001
300.339325	1323.841553	8485.374023	2815.811279	20.833107
300.713196	1320.120605	8301.758789	2787.894043	21.023338
301.087036	1318.830078	8080.785645	2754.190918	21.227007
301.460815	1318.313965	7865.405762	2720.208008	21.412470
301.834564	1318.830200	7684.758301	2693.452148	21.593426
302.208282	1315.969482	7537.729980	2674.417725	21.833824
302.582001	1314.270386	7416.811035	2654.049072	21.954441
302.955658	1316.012573	7311.185547	2642.004639	22.117662
303.329254	1312.506714	7221.174805	2629.271729	22.285311
303.702820	1310.958130	7142.068359	2617.829590	22.412052
304.076416	1310.807495	7075.995117	2607.892822	22.498581
304.449921	1307.430786	7021.515137	2600.687744	22.632793
304.823395	1309.603027	6969.917480	2596.407959	22.733807
305.196838	1308.527588	6920.384277	2590.062744	22.836206
305.570251	1308.183594	6865.559570	2584.255615	22.961773
305.943604	1304.828369	6805.509766	2575.652588	23.103031
306.316986	1304.312256	6761.246582	2568.963867	23.175129
306.690277	1306.420044	6728.404297	2568.017334	23.268185
307.063507	1305.581177	6712.079590	2568.340088	23.356316
307.436768	1305.989746	6721.134277	2572.189697	23.382570
307.809937	1307.258789	6748.900391	2582.685791	23.438276
308.183136	1308.011597	6803.165527	2597.181885	23.460131
308.556244	1310.054810	6877.411133	2623.572266	23.593199
308.929321	1309.172974	6967.895508	2646.392334	23.631117
309.302399	1310.226929	7060.530762	2672.331055	23.687517
309.675446	1309.043945	7157.489258	2695.043457	23.698597
310.048401	1308.054565	7253.113770	2721.261719	23.771120
310.421356	1309.237427	7348.910645	2750.168701	23.857769
310.794281	1307.839355	7451.095215	2774.816650	23.879477
311.167145	1308.248047	7564.163574	2806.261719	23.945555
311.539978	1312.119507	7661.917480	2834.157715	23.969870
311.912781	1313.324097	7733.152832	2853.106445	23.984789
312.285553	1312.012207	7749.498047	2860.483398	24.053974
312.658295	1312.399292	7722.591797	2853.514648	24.041639
313.031006	1312.227295	7670.456055	2845.320313	24.111952
313.403656	1311.839966	7615.524902	2835.448242	24.170120
313.776276	1313.603638	7565.497070	2828.243164	24.226892
314.148865	1316.313599	7539.773438	2824.586670	24.235283
314.521454	1316.442627	7537.837402	2821.317627	24.188709
314.893982	1316.958862	7538.117188	2824.135010	24.226616
315.266449	1319.109619	7502.563965	2815.316650	24.196945
315.638885	1316.851440	7438.685547	2799.164307	24.213543
316.011322	1317.281494	7355.319824	2783.699951	24.286341
316.383667	1318.270752	7282.773438	2769.354004	24.328653
316.756042	1318.722534	7224.507813	2758.557129	24.380070
317.128326	1319.754883	7172.802734	2745.415771	24.357582
317.500610	1316.872803	7118.904297	2731.972900	24.389736
317.872833	1315.517700	7058.530762	2721.090088	24.474476
318.245087	1312.592651	6980.606445	2700.506592	24.486778
