Jaz Data File
++++++++++++++++++++++++++++++++++++
Date: Thu Dec 19 19:55:42 2019
User: jaz
Dark Spectrum Present: Yes
Reference Spectrum Present: Yes
Processed Spectrum Present: Yes
Spectrometers: JAZA2928
Integration Time (usec): 32200 (JAZA2928)
Spectra Averaged: 10 (JAZA2928)
Boxcar Smoothing: 5 (JAZA2928)
Correct for Electrical Dark: No (JAZA2928)
Strobe/Lamp Enabled: Yes (JAZA2928)
Correct for Detector Non-linearity: No (JAZA2928)
Correct for Stray Light: No (JAZA2928)
Number of Pixels in Processed Spectrum: 2048
>>>>>Begin Processed Spectral Data<<<<<
W	D	R	S	P
190.104553	0.000000	0.000000	0.000000	0.000000
190.488098	0.000000	0.000000	0.000000	0.000000
190.871613	1222.216064	1221.506226	1224.108643	-266.620819
191.255096	1238.540649	1233.335571	1218.903687	377.265472
191.638535	0.000000	0.000000	0.000000	0.000000
192.021942	1036.773560	1030.450195	1021.460022	242.173889
192.405334	1155.648560	1147.669067	1137.001221	233.690796
192.788696	1274.652466	1262.909058	1253.123169	183.330902
193.172012	1281.298462	1269.963745	1258.951782	197.152512
193.555313	1285.621704	1275.921387	1264.285889	219.949661
193.938568	1287.686401	1279.212036	1266.845215	245.932129
194.321793	1290.460938	1281.040405	1271.125122	205.251831
194.704987	1289.019897	1284.245117	1273.211548	331.080139
195.088150	1289.234985	1288.267090	1275.684814	1399.962158
195.471298	1289.493042	1288.654419	1276.588379	1538.791870
195.854401	1289.772705	1286.008911	1277.039917	338.296631
196.237457	1290.568481	1284.460205	1278.007813	205.633606
196.620499	1288.439331	1282.847168	1278.911133	170.384842
197.003494	1284.438721	1283.922485	1278.093872	1229.061279
197.386475	1282.524536	1283.363403	1275.878540	-792.258423
197.769424	1281.212402	1279.771484	1275.534302	394.061340
198.152344	1276.953857	1280.287720	1276.416138	-16.129032
198.535217	1276.007568	1284.933472	1275.211792	-8.915359
198.918076	1276.867920	1284.051636	1274.846069	-28.144913
199.300903	1277.900269	1285.406616	1276.652832	-16.618422
199.683670	1277.362671	1288.159668	1276.996948	-3.387263
200.066422	1276.029175	1290.396362	1278.717651	18.712616
200.449142	1272.996338	1293.257080	1280.739380	38.216972
200.831848	1272.308105	1295.923950	1280.266235	33.698265
201.214508	1273.082520	1297.494019	1278.308960	21.409748
201.597137	1270.372437	1297.322144	1280.094116	36.073414
201.979736	1270.437012	1300.462280	1278.394897	26.503962
202.362274	1269.383057	1301.989380	1275.641968	19.195391
202.744827	1266.500977	1300.075073	1274.695557	24.407448
203.127319	1266.672974	1301.387085	1274.545044	22.676859
203.509796	1265.511597	1299.752441	1272.630737	20.791370
203.892227	1264.479126	1296.504761	1269.856323	16.790291
204.274643	1262.263794	1295.128174	1267.038696	14.529111
204.657013	1263.597534	1293.515137	1264.457886	2.875737
205.039352	1263.640503	1292.095581	1262.801758	-2.947611
205.421661	1264.092163	1289.751221	1263.124390	-3.771664
205.803940	1264.909424	1291.364380	1261.532715	-12.763994
206.186188	1265.898804	1292.547241	1260.758545	-19.289156
206.568405	1264.973755	1292.353638	1261.984375	-10.918161
206.950592	1264.758911	1290.504028	1260.328247	-17.209726
207.332748	1262.328491	1288.654297	1259.166870	-12.009589
207.714859	1261.661621	1287.793945	1256.112549	-21.234514
208.096939	1260.478760	1288.116577	1257.489136	-10.817149
208.478989	1260.220581	1289.772583	1257.897827	-7.859887
208.861008	1258.392456	1290.697388	1256.908325	-4.594131
209.243011	1256.542847	1291.041504	1256.220093	-0.935555
209.624969	1254.563965	1292.740723	1255.617920	2.760725
210.006897	1256.112671	1290.503906	1254.348877	-5.128615
210.388794	1252.155273	1290.288940	1255.639526	9.136947
210.770645	1254.585693	1292.611816	1255.553467	2.545023
211.152481	1253.273560	1292.353638	1256.757935	8.915988
211.534286	1252.133789	1291.041626	1255.402832	8.402017
211.916061	1251.208862	1291.536255	1255.897583	11.626640
212.297791	1251.488403	1293.773193	1256.542847	11.953337
212.679489	1250.240967	1292.418213	1258.457031	19.479851
213.061157	1249.832275	1292.224731	1258.198975	19.736292
213.442795	1248.907471	1290.891113	1259.102295	24.282848
213.824402	1249.208618	1290.891113	1262.371460	31.578825
214.205963	1249.251587	1292.998901	1262.263916	29.744293
214.587524	1250.778687	1292.697754	1264.027588	31.605907
214.969025	1250.004395	1290.955688	1264.586792	35.609123
215.350510	1251.638916	1293.730347	1264.694214	31.016521
215.731949	1254.628540	1297.343628	1265.103027	24.521751
216.113358	1253.961792	1301.021484	1267.275269	28.290615
216.494736	1254.542603	1302.505493	1267.490356	26.995358
216.876083	1258.156006	1306.893066	1267.726929	19.637875
217.257401	1258.543091	1309.237427	1268.436768	19.516336
217.638702	1260.457275	1314.420898	1269.254028	16.301264
218.019943	1260.607910	1316.421265	1266.501099	10.558743
218.401169	1260.048706	1319.152710	1267.425903	12.481722
218.782349	1262.521973	1321.927246	1267.296875	8.037843
219.163498	1263.059692	1323.755371	1266.264526	5.280169
219.544632	1262.479004	1325.282593	1267.511841	8.013614
219.925705	1262.070313	1328.229248	1268.393677	9.557838
220.306778	1261.704712	1329.971313	1266.371948	6.836779
220.687805	1260.328247	1330.100464	1263.661987	4.778034
221.068802	1259.102417	1331.304810	1264.629761	7.655347
221.449738	1259.575439	1335.176270	1264.823364	6.941623
221.830673	1260.844482	1340.144653	1266.092285	6.617644
222.211563	1260.564819	1345.908691	1269.490601	10.458609
222.592438	1260.005615	1350.704956	1269.727051	10.718309
222.973267	1257.661133	1356.189453	1271.189941	13.730884
223.354065	1257.489136	1360.684570	1271.577026	13.651661
223.734848	1257.983765	1367.545776	1272.738281	13.466818
224.115555	1257.058838	1371.632324	1273.189941	14.079264
224.496262	1259.274292	1378.923584	1275.792480	13.805505
224.876923	1259.166748	1387.118164	1276.975464	13.918343
225.257568	1258.413940	1396.839844	1278.954224	14.838468
225.638168	1257.467651	1405.399902	1281.750244	16.414671
226.018723	1255.510376	1415.358154	1284.180664	17.935993
226.399277	1256.671875	1429.618042	1288.159668	18.206701
226.779785	1256.284668	1448.308594	1292.482666	18.850775
227.160263	1256.564331	1469.364868	1293.923706	17.556053
227.540695	1255.811523	1498.056519	1300.096558	18.281094
227.921112	1255.682495	1535.050659	1307.065308	18.392508
228.301483	1256.327637	1587.142944	1319.260254	19.023491
228.681824	1255.940552	1654.613770	1332.917847	19.308369
229.062134	1257.187988	1742.345215	1353.845215	19.922867
229.442413	1256.822388	1835.195313	1368.169678	19.251816
229.822647	1256.736450	1917.162231	1383.160767	19.142851
230.202881	1256.370850	1976.868774	1393.893311	19.087141
230.583054	1255.919067	2022.057129	1400.969360	18.932657
230.963196	1257.231079	2059.610352	1409.163940	18.935293
231.343292	1256.671875	2089.786133	1415.853027	19.106762
231.723404	1257.381592	2115.445068	1421.552612	19.132736
232.103439	1258.865601	2118.628174	1425.574585	19.390120
232.483459	1259.683105	2104.992188	1422.369751	19.245817
232.863434	1258.586060	2070.450195	1413.207275	19.045208
233.243393	1258.285034	2015.389771	1401.184448	18.874458
233.623306	1259.682983	1957.339478	1392.021973	18.969076
234.003174	1262.436035	1916.216064	1382.902466	18.426142
234.383041	1264.672852	1894.191772	1377.826660	17.974648
234.762848	1262.823120	1883.179688	1374.471436	17.997442
235.142639	1262.758667	1874.318359	1372.621704	17.964401
235.522385	1263.877075	1869.134888	1372.686279	17.977331
235.902115	1263.984619	1861.284424	1371.116211	17.935984
236.281799	1261.790894	1867.285156	1368.771851	17.668369
236.661438	1260.521851	1877.587524	1371.180786	17.933088
237.041077	1259.962646	1886.642456	1373.224121	18.073261
237.420654	1258.521606	1899.052368	1374.407104	18.092106
237.800217	1259.618530	1908.171875	1375.009277	17.792021
238.179733	1258.392456	1913.032715	1375.396362	17.873009
238.559219	1255.639526	1920.151855	1375.740356	18.073528
238.938690	1257.015991	1925.270630	1376.966431	17.949810
239.318100	1257.059082	1934.110840	1379.504395	18.085073
239.697510	1257.037476	1949.876099	1383.440308	18.244196
240.076859	1259.962524	1975.535156	1386.257935	17.649559
240.456177	1263.360840	2010.206177	1390.710083	17.051622
240.835464	1266.350464	2052.361816	1396.452637	16.552200
241.214722	1268.243286	2118.499023	1407.894897	16.424660
241.593948	1271.835083	2203.584961	1421.573975	16.070717
241.973129	1272.007080	2313.103760	1441.232300	16.254515
242.352295	1273.104004	2449.937988	1466.826904	16.461361
242.731415	1274.028809	2594.773438	1493.776489	16.638166
243.110519	1276.136597	2738.920410	1519.973389	16.669367
243.489578	1279.879028	2854.095703	1536.943237	16.329659
243.868607	1280.524292	2936.471680	1547.847778	16.143236
244.247604	1278.610107	2992.048340	1558.859863	16.355988
244.626541	1278.545654	3030.138916	1567.764160	16.511740
245.005493	1277.706665	3060.357910	1573.743286	16.606537
245.384369	1278.093872	3082.252930	1579.098755	16.683945
245.763229	1277.039917	3105.395264	1584.862915	16.836060
246.142059	1276.695801	3143.271240	1592.025269	16.893476
246.520859	1278.373413	3211.688232	1606.156128	16.954441
246.899612	1283.535278	3337.144531	1627.685547	16.758312
247.278336	1285.127075	3500.261475	1652.785522	16.597569
247.657043	1286.783081	3670.949219	1683.283936	16.630589
248.035690	1292.074097	3825.097412	1711.975464	16.577082
248.414322	1294.633545	3956.468994	1733.375854	16.482698
248.792908	1296.332642	4057.556885	1749.485596	16.411306
249.171478	1296.440308	4134.491211	1761.895630	16.400528
249.550003	1297.472656	4170.065430	1767.853516	16.374784
249.928482	1299.150269	4163.354980	1766.089844	16.302591
250.306961	1300.655762	4105.949707	1753.937866	16.158096
250.685364	1299.193237	3984.687500	1729.182129	16.011538
251.063782	1295.364746	3801.374268	1694.769165	15.937865
251.442123	1292.891357	3596.402344	1660.356323	15.952386
251.820450	1288.761841	3427.220215	1633.385132	16.115501
252.198761	1285.148438	3321.271729	1610.737183	15.990621
252.576996	1283.771973	3252.962402	1598.993774	16.007685
252.955246	1284.266724	3202.784180	1590.820679	15.978690
253.333420	1282.395508	3155.960938	1580.174316	15.893697
253.711578	1282.094360	3120.386719	1572.194824	15.780975
254.089706	1281.234009	3094.641602	1566.753418	15.744911
254.467804	1278.696167	3074.488281	1565.441284	15.967612
254.845871	1278.954224	3059.067383	1563.397949	15.978969
255.223877	1279.362915	3035.322754	1559.612549	15.959911
255.601898	1279.986572	3003.275635	1555.031372	15.960457
255.979828	1278.072266	2957.786133	1545.696899	15.932752
256.357727	1275.921509	2903.155518	1540.126465	16.236444
256.735657	1277.986328	2861.386719	1531.501587	16.010813
257.113525	1275.469849	2853.579346	1529.243286	16.080851
257.491333	1275.814087	2883.432617	1535.996582	16.184343
257.869110	1277.921875	2942.601318	1545.438721	16.070171
258.246887	1279.448975	3030.805664	1561.634399	16.112391
258.624573	1278.932617	3157.036133	1584.734009	16.282457
259.002289	1279.792969	3341.295898	1615.598145	16.289337
259.379944	1281.255493	3600.080322	1659.366821	16.306162
259.757538	1282.567505	3934.035400	1712.126099	16.200785
260.135162	1288.331665	4299.199219	1771.875366	16.059946
260.512665	1292.977417	4625.433105	1822.957031	15.903576
260.890228	1291.622437	4865.914551	1864.187988	16.018991
261.267700	1292.805298	5017.804199	1890.212769	16.037788
261.645142	1295.235718	5103.686035	1903.547974	15.972698
262.022552	1294.805542	5155.219238	1913.247925	16.020107
262.399994	1293.084839	5181.330078	1915.097534	15.997260
262.777313	1296.268066	5170.166992	1910.043091	15.843858
263.154602	1296.010010	5093.103516	1897.632935	15.844301
263.531921	1295.536865	4939.601074	1870.016724	15.764812
263.909149	1293.988281	4691.892578	1830.226929	15.781452
264.286377	1290.611450	4405.685547	1781.296143	15.751943
264.663574	1287.385254	4147.826172	1740.667480	15.846586
265.040710	1289.364136	3970.470947	1710.749634	15.716847
265.417816	1288.245605	3871.103271	1692.726074	15.660192
265.794891	1288.611206	3844.691650	1688.144653	15.630707
266.171936	1288.976929	3865.167236	1689.005005	15.527892
266.548950	1289.170532	3915.560791	1697.995361	15.566036
266.925934	1287.621948	3973.847412	1705.157471	15.543576
267.302887	1286.912231	4037.941162	1714.018799	15.525340
267.679810	1286.202515	4101.884766	1726.149292	15.624874
268.056671	1288.869385	4178.711426	1735.892456	15.468772
268.433502	1289.901733	4260.613770	1750.087769	15.490767
268.810333	1290.138184	4344.064453	1760.110474	15.389117
269.187073	1288.159546	4420.568848	1772.090576	15.449164
269.563843	1291.127808	4495.244629	1781.683105	15.310157
269.940521	1290.525513	4550.649414	1788.888306	15.286621
270.317200	1290.826538	4602.333496	1796.889404	15.281952
270.693848	1291.837402	4668.664063	1806.610840	15.244295
271.070435	1295.063599	4802.809570	1824.161377	15.083696
271.447021	1298.569458	4975.347168	1849.003418	14.970552
271.823547	1300.892456	5153.003418	1874.598022	14.893278
272.200043	1301.236450	5297.623535	1894.062622	14.834052
272.576538	1301.731201	5417.380371	1910.279785	14.786210
272.952972	1303.602417	5524.404297	1926.539917	14.758748
273.329346	1305.452026	5626.266602	1939.788940	14.680957
273.705688	1305.495117	5704.082520	1954.263794	14.749478
274.082062	1306.118896	5763.487793	1964.867188	14.778859
274.458344	1304.914429	5788.759766	1968.760132	14.805277
274.834595	1307.861206	5770.413574	1962.522705	14.670114
275.210846	1304.936035	5690.102051	1952.413940	14.765185
275.587006	1301.774292	5586.046387	1935.981934	14.803160
275.963165	1300.913818	5493.390137	1922.109253	14.816909
276.339294	1300.182495	5446.760742	1920.367065	14.956539
276.715393	1300.763184	5423.337891	1913.291016	14.857895
277.091461	1301.064331	5414.713867	1910.258301	14.809088
277.467438	1302.591553	5411.982422	1910.946533	14.804019
277.843445	1302.526978	5416.176270	1911.312134	14.799150
278.219452	1303.602417	5431.188965	1910.150513	14.694983
278.595337	1304.226196	5454.288574	1913.183472	14.673449
278.971191	1304.570313	5486.980957	1917.872192	14.663837
279.347046	1307.344849	5512.983887	1922.367310	14.623757
279.722870	1309.753784	5537.567871	1925.098877	14.554688
280.098663	1310.377441	5561.312988	1926.755127	14.499812
280.474396	1310.979614	5597.123535	1925.034302	14.326506
280.850098	1312.055054	5649.495605	1933.164185	14.319715
281.225800	1313.108887	5724.945801	1946.563721	14.358074
281.601440	1313.517578	5833.131348	1957.876953	14.256957
281.977051	1313.797119	5982.203613	1972.997192	14.120452
282.352600	1314.700439	6137.964355	1994.247192	14.088941
282.728149	1317.496582	6282.090332	2014.142212	14.032279
283.103668	1317.475098	6392.448242	2028.917969	14.018653
283.479156	1319.604370	6480.501953	2041.091797	13.979883
283.854553	1319.668945	6564.039551	2050.920898	13.943560
284.229950	1320.851929	6661.018555	2064.535400	13.926223
284.605347	1322.895142	6765.247070	2082.795898	13.962727
284.980652	1320.787354	6863.861328	2098.668945	14.033397
285.355988	1320.916382	6953.184570	2109.551758	14.002092
285.731201	1319.260254	7031.666992	2120.391846	14.024414
286.106445	1319.776489	7098.621582	2132.371826	14.061552
286.481659	1320.228027	7166.027832	2142.136475	14.059812
286.856781	1320.464722	7232.853516	2149.793213	14.026961
287.231934	1318.894653	7298.947266	2158.783691	14.044844
287.607025	1316.464233	7346.716797	2164.677002	14.065958
287.982056	1316.894409	7365.557617	2168.613037	14.081105
288.357086	1315.732910	7357.599609	2164.590820	14.049597
288.732086	1311.667969	7326.048340	2159.880615	14.103076
289.107025	1310.850708	7290.688965	2152.804443	14.079874
289.481934	1310.571045	7261.221680	2148.481445	14.080989
289.856842	1311.818359	7236.639160	2148.373535	14.119502
290.231659	1311.022583	7237.713867	2147.448975	14.112872
290.606506	1311.689331	7248.296387	2150.847168	14.135311
290.981262	1312.184082	7264.535645	2154.374268	14.148865
291.355988	1309.947144	7285.590820	2160.525635	14.234090
291.730713	1311.646362	7312.411133	2167.623535	14.264468
292.105377	1310.377319	7339.360840	2173.925537	14.323280
292.480011	1310.484985	7357.492188	2183.840576	14.442774
292.854614	1312.549683	7364.181152	2189.690674	14.494290
293.229187	1313.861694	7380.162109	2199.821045	14.604608
293.603729	1313.517578	7405.820801	2213.005371	14.764331
293.978241	1312.506714	7443.051270	2230.448730	14.973254
294.352692	1314.033691	7473.033203	2250.279053	15.201258
294.727081	1313.603638	7494.950195	2271.227539	15.492156
295.101501	1311.560425	7516.952637	2296.994385	15.880285
295.475830	1314.722168	7571.195801	2327.836914	16.193064
295.850189	1317.367676	7669.617676	2367.325684	16.528915
296.224457	1320.572266	7832.454590	2417.073730	16.838472
296.598694	1323.067261	8046.718262	2479.683838	17.202211
296.972931	1324.938354	8301.458984	2549.735352	17.555986
297.347107	1326.938599	8538.541016	2617.743896	17.899008
297.721283	1328.874390	8714.519531	2670.890381	18.170599
298.095367	1331.175781	8806.853516	2711.088867	18.458702
298.469452	1331.648926	8820.446289	2734.941162	18.738552
298.843475	1328.057129	8795.217773	2751.050781	19.056690
299.217529	1329.046387	8756.138672	2759.654053	19.262016
299.591492	1328.444214	8698.583984	2764.170410	19.480312
299.965424	1325.196533	8618.014648	2761.310303	19.692163
300.339325	1323.841553	8485.374023	2751.244385	19.931528
300.713196	1320.120605	8301.758789	2725.670898	20.132099
301.087036	1318.830078	8080.785645	2694.849854	20.349436
301.460815	1318.313965	7865.405762	2659.920898	20.491648
301.834564	1318.830200	7684.758301	2634.993164	20.675116
302.208282	1315.969482	7537.729980	2614.646729	20.873146
302.582001	1314.270386	7416.811035	2599.569336	21.061703
302.955658	1316.012573	7311.185547	2584.406250	21.156916
303.329254	1312.506714	7221.174805	2569.178467	21.268274
303.702820	1310.958130	7142.068359	2557.090820	21.370419
304.076416	1310.807495	7075.995117	2549.154541	21.479736
304.449921	1307.430786	7021.515137	2544.293945	21.645868
304.823395	1309.603027	6969.917480	2539.153320	21.722296
305.196838	1308.527588	6920.384277	2533.668945	21.831303
305.570251	1308.183594	6865.559570	2529.259521	21.972166
305.943604	1304.828369	6805.509766	2523.839600	22.161095
306.316986	1304.312256	6761.246582	2519.172363	22.262684
306.690277	1306.420044	6728.404297	2517.107666	22.329235
307.063507	1305.581177	6712.079590	2515.193604	22.373306
307.436768	1305.989746	6721.134277	2526.937012	22.546902
307.809937	1307.258789	6748.900391	2538.185791	22.620508
308.183136	1308.011597	6803.165527	2552.187256	22.641325
308.556244	1310.054810	6877.411133	2572.189697	22.670273
308.929321	1309.172974	6967.895508	2595.289307	22.728033
309.302399	1310.226929	7060.530762	2620.583008	22.787598
309.675446	1309.043945	7157.489258	2644.628906	22.836580
310.048401	1308.054565	7253.113770	2670.352539	22.914793
310.421356	1309.237427	7348.910645	2695.280273	22.948971
310.794281	1307.839355	7451.095215	2723.606201	23.045872
311.167145	1308.248047	7564.163574	2756.406006	23.148617
311.539978	1312.119507	7661.917480	2781.118896	23.134584
311.912781	1313.324097	7733.152832	2802.820557	23.201498
312.285553	1312.012207	7749.498047	2815.036865	23.348007
312.658295	1312.399292	7722.591797	2811.617188	23.388033
313.031006	1312.227295	7670.456055	2802.175293	23.433382
313.403656	1311.839966	7615.524902	2789.270508	23.437569
313.776276	1313.603638	7565.497070	2783.570801	23.512352
314.148865	1316.313599	7539.773438	2779.635010	23.512989
314.521454	1316.442627	7537.837402	2780.172607	23.527361
314.893982	1316.958862	7538.117188	2774.946289	23.435949
315.266449	1319.109619	7502.563965	2766.579590	23.408760
315.638885	1316.851440	7438.685547	2752.319336	23.448332
316.011322	1317.281494	7355.319824	2729.628662	23.390829
316.383667	1318.270752	7282.773438	2709.841309	23.330872
316.756042	1318.722534	7224.507813	2697.646240	23.348694
317.128326	1319.754883	7172.802734	2687.774170	23.372768
317.500610	1316.872803	7118.904297	2674.417725	23.397753
317.872833	1315.517700	7058.530762	2657.404541	23.365555
318.245087	1312.592651	6980.606445	2638.993896	23.401518
318.617218	1311.775391	6885.283203	2614.539063	23.374214
