Jaz Data File
++++++++++++++++++++++++++++++++++++
Date: Thu Dec 19 19:55:27 2019
User: jaz
Dark Spectrum Present: Yes
Reference Spectrum Present: Yes
Processed Spectrum Present: Yes
Spectrometers: JAZA2928
Integration Time (usec): 32200 (JAZA2928)
Spectra Averaged: 10 (JAZA2928)
Boxcar Smoothing: 5 (JAZA2928)
Correct for Electrical Dark: No (JAZA2928)
Strobe/Lamp Enabled: Yes (JAZA2928)
Correct for Detector Non-linearity: No (JAZA2928)
Correct for Stray Light: No (JAZA2928)
Number of Pixels in Processed Spectrum: 2048
>>>>>Begin Processed Spectral Data<<<<<
W	D	R	S	P
190.104553	0.000000	0.000000	0.000000	0.000000
190.488098	0.000000	0.000000	0.000000	0.000000
190.871613	1222.216064	1221.506226	1204.235352	2533.069580
191.255096	1238.540649	1233.335571	1234.755127	72.727486
191.638535	0.000000	0.000000	0.000000	0.000000
192.021942	1036.773560	1030.450195	1026.514282	162.243973
192.405334	1155.648560	1147.669067	1143.668579	150.134628
192.788696	1274.652466	1262.909058	1258.951660	133.698883
193.172012	1281.298462	1269.963745	1266.393433	131.498917
193.555313	1285.621704	1275.921387	1270.028198	160.752533
193.938568	1287.686401	1279.212036	1275.900024	139.082718
194.321793	1290.460938	1281.040405	1278.007813	132.191315
194.704987	1289.019897	1284.245117	1281.234009	163.062759
195.088150	1289.234985	1288.267090	1284.739746	464.434357
195.471298	1289.493042	1288.654419	1284.352661	612.954895
195.854401	1289.772705	1286.008911	1280.416748	248.577820
196.237457	1290.568481	1284.460205	1278.868042	191.550598
196.620499	1288.439331	1282.847168	1277.061401	203.462051
197.003494	1284.438721	1283.922485	1276.652832	1508.205200
197.386475	1282.524536	1283.363403	1272.738403	-1166.589111
197.769424	1281.212402	1279.771484	1272.523315	603.024414
198.152344	1276.953857	1280.287720	1271.964111	-149.668625
198.535217	1276.007568	1284.933472	1272.200684	-42.649853
198.918076	1276.867920	1284.051636	1270.372559	-90.417847
199.300903	1277.900269	1285.406616	1268.910034	-119.768425
199.683670	1277.362671	1288.159668	1268.823853	-79.085121
200.066422	1276.029175	1290.396362	1270.566040	-38.025082
200.449142	1272.996338	1293.257080	1272.200684	-3.927074
200.831848	1272.308105	1295.923950	1272.974854	2.823308
201.214508	1273.082520	1297.494019	1274.394409	5.374064
201.597137	1270.372437	1297.322144	1277.362549	25.937618
201.979736	1270.437012	1300.462280	1276.803345	21.203251
202.362274	1269.383057	1301.989380	1276.222656	20.976297
202.744827	1266.500977	1300.075073	1276.523804	29.852858
203.127319	1266.672974	1301.387085	1278.395020	33.767380
203.509796	1265.511597	1299.752441	1278.093872	36.746391
203.892227	1264.479126	1296.504761	1280.309082	49.429016
204.274643	1262.263794	1295.128174	1280.072510	54.188503
204.657013	1263.597534	1293.515137	1275.749512	40.618153
205.039352	1263.640503	1292.095581	1273.297485	33.937641
205.421661	1264.092163	1289.751221	1271.340332	28.247993
205.803940	1264.909424	1291.364380	1268.028076	11.788537
206.186188	1265.898804	1292.547241	1267.318237	5.326517
206.568405	1264.973755	1292.353638	1264.672852	-1.098994
206.950592	1264.758911	1290.504028	1261.123901	-14.119220
207.332748	1262.328491	1288.654297	1257.123535	-19.771307
207.714859	1261.661621	1287.793945	1257.015869	-17.777798
208.096939	1260.478760	1288.116577	1254.564087	-21.400652
208.478989	1260.220581	1289.772583	1252.004395	-27.802469
208.861008	1258.392456	1290.697388	1254.434937	-12.250512
209.243011	1256.542847	1291.041504	1255.811401	-2.120214
209.624969	1254.563965	1292.740723	1255.144653	1.521052
210.006897	1256.112671	1290.503906	1257.618164	4.377549
210.388794	1252.155273	1290.288940	1258.822754	17.484499
210.770645	1254.585693	1292.611816	1258.091431	9.219287
211.152481	1253.273560	1292.353638	1259.661621	16.346083
211.534286	1252.133789	1291.041626	1259.080811	17.855070
211.916061	1251.208862	1291.536255	1260.328247	22.613375
212.297791	1251.488403	1293.773193	1261.167114	22.889343
212.679489	1250.240967	1292.418213	1261.769287	27.333033
213.061157	1249.832275	1292.224731	1261.618774	27.803293
213.442795	1248.907471	1290.891113	1260.779907	28.278719
213.824402	1249.208618	1290.891113	1262.672485	32.301010
214.205963	1249.251587	1292.998901	1263.511230	32.595470
214.587524	1250.778687	1292.697754	1263.016724	29.194441
214.969025	1250.004395	1290.955688	1264.350098	35.031136
215.350510	1251.638916	1293.730347	1265.102905	31.987484
215.731949	1254.628540	1297.343628	1265.769653	26.082384
216.113358	1253.961792	1301.021484	1266.479492	26.599623
216.494736	1254.542603	1302.505493	1267.167725	26.322687
216.876083	1258.156006	1306.893066	1269.211060	22.683054
217.257401	1258.543091	1309.237427	1270.135864	22.867985
217.638702	1260.457275	1314.420898	1273.254517	23.714571
218.019943	1260.607910	1316.421265	1273.017944	22.234882
218.401169	1260.048706	1319.152710	1273.426636	22.634558
218.782349	1262.521973	1321.927246	1275.362305	21.614801
219.163498	1263.059692	1323.755371	1275.835449	21.048874
219.544632	1262.479004	1325.282593	1278.373413	25.308123
219.925705	1262.070313	1328.229248	1280.631714	28.055775
220.306778	1261.704712	1329.971313	1280.158691	27.032223
220.687805	1260.328247	1330.100464	1278.588501	26.171240
221.068802	1259.102417	1331.304810	1278.631592	27.047823
221.449738	1259.575439	1335.176270	1279.599487	26.486546
221.830673	1260.844482	1340.144653	1280.094116	24.274391
222.211563	1260.564819	1345.908691	1283.406250	26.763996
222.592438	1260.005615	1350.704956	1285.363525	27.958208
222.973267	1257.661133	1356.189453	1287.686401	30.473745
223.354065	1257.489136	1360.684570	1289.579224	31.096422
223.734848	1257.983765	1367.545776	1289.256592	28.543495
224.115555	1257.058838	1371.632324	1291.149170	29.754120
224.496262	1259.274292	1378.923584	1293.257080	28.401997
224.876923	1259.166748	1387.118164	1297.322021	29.820126
225.257568	1258.413940	1396.839844	1301.085938	30.826599
225.638168	1257.467651	1405.399902	1304.140137	31.549906
226.018723	1255.510376	1415.358154	1306.979248	32.198677
226.399277	1256.671875	1429.618042	1310.054810	30.866793
226.779785	1256.284668	1448.308594	1314.184326	30.152315
227.160263	1256.564331	1469.364868	1317.345947	28.562717
227.540695	1255.811523	1498.056519	1325.540527	28.784496
227.921112	1255.682495	1535.050659	1335.756958	28.662701
228.301483	1256.327637	1587.142944	1351.844849	28.873274
228.681824	1255.940552	1654.613770	1371.868896	29.078539
229.062134	1257.187988	1742.345215	1394.452271	28.292742
229.442413	1256.822388	1835.195313	1421.617065	28.492805
229.822647	1256.736450	1917.162231	1444.953247	28.499311
230.202881	1256.370850	1976.868774	1461.062744	28.409782
230.583054	1255.919067	2022.057129	1474.999878	28.595474
230.963196	1257.231079	2059.610352	1484.958130	28.381472
231.343292	1256.671875	2089.786133	1494.894897	28.594280
231.723404	1257.381592	2115.445068	1500.293335	28.309298
232.103439	1258.865601	2118.628174	1501.304199	28.198320
232.483459	1259.683105	2104.992188	1495.540161	27.901873
232.863434	1258.586060	2070.450195	1485.087280	27.898907
233.243393	1258.285034	2015.389771	1469.128174	27.848610
233.623306	1259.682983	1957.339478	1451.255127	27.459379
234.003174	1262.436035	1916.216064	1437.963135	26.848036
234.383041	1264.672852	1894.191772	1431.102051	26.437521
234.762848	1262.823120	1883.179688	1426.176636	26.332197
235.142639	1262.758667	1874.318359	1423.595703	26.299482
235.522385	1263.877075	1869.134888	1421.165283	25.986977
235.902115	1263.984619	1861.284424	1419.315552	26.005522
236.281799	1261.790894	1867.285156	1419.036011	25.969711
236.661438	1260.521851	1877.587524	1420.713623	25.960247
237.041077	1259.962646	1886.642456	1422.326660	25.908607
237.420654	1258.521606	1899.052368	1424.111938	25.852051
237.800217	1259.618530	1908.171875	1425.854126	25.631754
238.179733	1258.392456	1913.032715	1426.090698	25.616854
238.559219	1255.639526	1920.151855	1425.768066	25.602015
238.938690	1257.015991	1925.270630	1425.552979	25.220474
239.318100	1257.059082	1934.110840	1428.349121	25.299400
239.697510	1257.037476	1949.876099	1431.553833	25.188601
240.076859	1259.962524	1975.535156	1436.887817	24.724995
240.456177	1263.360840	2010.206177	1447.276245	24.625635
240.835464	1266.350464	2052.361816	1459.815308	24.613493
241.214722	1268.243286	2118.499023	1474.892456	24.304354
241.593948	1271.835083	2203.584961	1498.723389	24.350775
241.973129	1272.007080	2313.103760	1524.855591	24.286747
242.352295	1273.104004	2449.937988	1559.311646	24.320137
242.731415	1274.028809	2594.773438	1596.047241	24.381582
243.110519	1276.136597	2738.920410	1632.481934	24.360765
243.489578	1279.879028	2854.095703	1661.044434	24.213020
243.868607	1280.524292	2936.471680	1682.724609	24.288231
244.247604	1278.610107	2992.048340	1697.995239	24.476233
244.626541	1278.545654	3030.138916	1707.566406	24.493172
245.005493	1277.706665	3060.357910	1712.297974	24.378931
245.384369	1278.093872	3082.252930	1716.341675	24.290974
245.763229	1277.039917	3105.395264	1718.793457	24.161251
246.142059	1276.695801	3143.271240	1727.138672	24.132048
246.520859	1278.373413	3211.688232	1744.108521	24.089977
246.899612	1283.535278	3337.144531	1776.241699	23.992218
247.278336	1285.127075	3500.261475	1815.128174	23.926365
247.657043	1286.783081	3670.949219	1853.477051	23.769066
248.035690	1292.074097	3825.097412	1888.922363	23.562683
248.414322	1294.633545	3956.468994	1917.958130	23.417097
248.792908	1296.332642	4057.556885	1943.100830	23.423241
249.171478	1296.440308	4134.491211	1959.877075	23.376493
249.550003	1297.472656	4170.065430	1970.824585	23.440563
249.928482	1299.150269	4163.354980	1972.781738	23.518972
250.306961	1300.655762	4105.949707	1958.564941	23.452415
250.685364	1299.193237	3984.687500	1928.217529	23.423037
251.063782	1295.364746	3801.374268	1881.286987	23.380688
251.442123	1292.891357	3596.402344	1829.560059	23.297857
251.820450	1288.761841	3427.220215	1789.770020	23.428473
252.198761	1285.148438	3321.271729	1763.315308	23.484180
252.576996	1283.771973	3252.962402	1749.033936	23.627068
252.955246	1284.266724	3202.784180	1736.387207	23.566139
253.333420	1282.395508	3155.960938	1726.708618	23.714844
253.711578	1282.094360	3120.386719	1717.696777	23.696035
254.089706	1281.234009	3094.641602	1709.695801	23.627439
254.467804	1278.696167	3074.488281	1707.394409	23.872375
254.845871	1278.954224	3059.067383	1703.996094	23.877239
255.223877	1279.362915	3035.322754	1698.705078	23.881079
255.601898	1279.986572	3003.275635	1691.973022	23.906984
255.979828	1278.072266	2957.786133	1679.971558	23.926653
256.357727	1275.921509	2903.155518	1666.270996	23.988527
256.735657	1277.986328	2861.386719	1655.215576	23.823996
257.113525	1275.469849	2853.579346	1650.591675	23.770329
257.491333	1275.814087	2883.432617	1657.194580	23.723320
257.869110	1277.921875	2942.601318	1671.389893	23.636263
258.246887	1279.448975	3030.805664	1692.575317	23.588932
258.624573	1278.932617	3157.036133	1720.944458	23.535009
259.002289	1279.792969	3341.295898	1760.282471	23.307728
259.379944	1281.255493	3600.080322	1821.408325	23.294250
259.757538	1282.567505	3934.035400	1896.686646	23.161478
260.135162	1288.331665	4299.199219	1982.718872	23.062695
260.512665	1292.977417	4625.433105	2060.556396	23.033434
260.890228	1291.622437	4865.914551	2118.004395	23.120157
261.267700	1292.805298	5017.804199	2154.976807	23.145550
261.645142	1295.235718	5103.686035	2175.194336	23.105425
262.022552	1294.805542	5155.219238	2184.937256	23.057936
262.399994	1293.084839	5181.330078	2189.346436	23.050543
262.777313	1296.268066	5170.166992	2183.152100	22.893835
263.154602	1296.010010	5093.103516	2167.451416	22.950222
263.531921	1295.536865	4939.601074	2130.909180	22.924192
263.909149	1293.988281	4691.892578	2073.913086	22.953114
264.286377	1290.611450	4405.685547	2006.421021	22.978893
264.663574	1287.385254	4147.826172	1944.219482	22.962692
265.040710	1289.364136	3970.470947	1898.514893	22.720121
265.417816	1288.245605	3871.103271	1872.468384	22.619240
265.794891	1288.611206	3844.691650	1861.692993	22.420334
266.171936	1288.976929	3865.167236	1864.876465	22.354696
266.548950	1289.170532	3915.560791	1873.242920	22.238600
266.925934	1287.621948	3973.847412	1886.190918	22.282900
267.302887	1286.912231	4037.941162	1897.826538	22.206758
267.679810	1286.202515	4101.884766	1908.236450	22.091766
268.056671	1288.869385	4178.711426	1924.862183	22.007874
268.433502	1289.901733	4260.613770	1942.584839	21.970596
268.810333	1290.138184	4344.064453	1956.887451	21.832527
269.187073	1288.159546	4420.568848	1972.674316	21.852661
269.563843	1291.127808	4495.244629	1985.127686	21.659632
269.940521	1290.525513	4550.649414	1997.171997	21.675447
270.317200	1290.826538	4602.333496	2008.055176	21.658680
270.693848	1291.837402	4668.664063	2022.401123	21.634623
271.070435	1295.063599	4802.809570	2046.490234	21.421923
271.447021	1298.569458	4975.347168	2081.806396	21.302265
271.823547	1300.892456	5153.003418	2118.262451	21.218756
272.200043	1301.236450	5297.623535	2149.234131	21.219107
272.576538	1301.731201	5417.380371	2172.011230	21.145630
272.952972	1303.602417	5524.404297	2194.938965	21.117706
273.329346	1305.452026	5626.266602	2212.661133	20.996252
273.705688	1305.495117	5704.082520	2229.480713	21.006416
274.082062	1306.118896	5763.487793	2240.879883	20.971136
274.458344	1304.914429	5788.759766	2245.568604	20.978739
274.834595	1307.861206	5770.413574	2239.503174	20.876886
275.210846	1304.936035	5690.102051	2222.597900	20.926502
275.587006	1301.774292	5586.046387	2196.229004	20.877636
275.963165	1300.913818	5493.390137	2175.861084	20.869461
276.339294	1300.182495	5446.760742	2161.515381	20.772137
276.715393	1300.763184	5423.337891	2155.342285	20.729258
277.091461	1301.064331	5414.713867	2153.987305	20.733973
277.467438	1302.591553	5411.982422	2155.342041	20.751265
277.843445	1302.526978	5416.176270	2157.428711	20.782076
278.219452	1303.602417	5431.188965	2160.719238	20.765570
278.595337	1304.226196	5454.288574	2164.913330	20.739136
278.971191	1304.570313	5486.980957	2170.268799	20.698553
279.347046	1307.344849	5512.983887	2174.850342	20.627197
279.722870	1309.753784	5537.567871	2181.732666	20.624817
280.098663	1310.377441	5561.312988	2187.389404	20.631035
280.474396	1310.979614	5597.123535	2193.433350	20.588522
280.850098	1312.055054	5649.495605	2200.251465	20.477432
281.225800	1313.108887	5724.945801	2216.188721	20.469475
281.601440	1313.517578	5833.131348	2237.460205	20.442955
281.977051	1313.797119	5982.203613	2264.280762	20.359917
282.352600	1314.700439	6137.964355	2293.552979	20.294403
282.728149	1317.496582	6282.090332	2321.814697	20.229612
283.103668	1317.475098	6392.448242	2343.430176	20.215971
283.479156	1319.604370	6480.501953	2362.120605	20.200289
283.854553	1319.668945	6564.039551	2377.541992	20.171593
284.229950	1320.851929	6661.018555	2392.855713	20.074350
284.605347	1322.895142	6765.247070	2413.718506	20.043234
284.980652	1320.787354	6863.861328	2432.408691	20.054239
285.355988	1320.916382	6953.184570	2445.334961	19.963869
285.731201	1319.260254	7031.666992	2457.874512	19.932304
286.106445	1319.776489	7098.621582	2471.983643	19.938364
286.481659	1320.228027	7166.027832	2483.748779	19.903534
286.856781	1320.464722	7232.853516	2493.879150	19.846706
287.231934	1318.894653	7298.947266	2504.460938	19.825348
287.607025	1316.464233	7346.716797	2511.149902	19.811537
287.982056	1316.894409	7365.557617	2514.311523	19.796392
288.357086	1315.732910	7357.599609	2513.881592	19.830770
288.732086	1311.667969	7326.048340	2508.719482	19.903156
289.107025	1310.850708	7290.688965	2503.256348	19.940434
289.481934	1310.571045	7261.221680	2496.395264	19.927641
289.856842	1311.818359	7236.639160	2492.157959	19.921946
290.231659	1311.022583	7237.713867	2491.620605	19.920019
290.606506	1311.689331	7248.296387	2493.707031	19.910662
290.981262	1312.184082	7264.535645	2497.255615	19.909300
291.355988	1309.947144	7285.590820	2506.267578	20.019943
291.730713	1311.646362	7312.411133	2513.365479	20.026100
292.105377	1310.377319	7339.360840	2519.667236	20.057941
292.480011	1310.484985	7357.492188	2524.312744	20.073198
292.854614	1312.549683	7364.181152	2526.592773	20.061419
293.229187	1313.861694	7380.162109	2534.529297	20.122110
293.603729	1313.517578	7405.820801	2550.273193	20.300297
293.978241	1312.506714	7443.051270	2568.899414	20.493982
294.352692	1314.033691	7473.033203	2587.546631	20.677269
294.727081	1313.603638	7494.950195	2610.022461	20.973080
295.101501	1311.560425	7516.952637	2634.778320	21.323679
295.475830	1314.722168	7571.195801	2664.029297	21.566576
295.850189	1317.367676	7669.617676	2706.679688	21.871180
296.224457	1320.572266	7832.454590	2767.353760	22.217562
296.598694	1323.067261	8046.718262	2838.997070	22.546230
296.972931	1324.938354	8301.458984	2920.641602	22.872480
297.347107	1326.938599	8538.541016	3000.845215	23.211298
297.721283	1328.874390	8714.519531	3064.014160	23.493408
298.095367	1331.175781	8806.853516	3106.471191	23.747618
298.469452	1331.648926	8820.446289	3134.668213	24.076220
298.843475	1328.057129	8795.217773	3149.702393	24.395420
299.217529	1329.046387	8756.138672	3155.036133	24.585527
299.591492	1328.444214	8698.583984	3152.735107	24.752460
299.965424	1325.196533	8618.014648	3149.121338	25.009876
300.339325	1323.841553	8485.374023	3126.322754	25.168932
300.713196	1320.120605	8301.758789	3094.620117	25.416664
301.087036	1318.830078	8080.785645	3052.399902	25.637108
301.460815	1318.313965	7865.405762	3007.856445	25.806000
301.834564	1318.830200	7684.758301	2972.368408	25.974817
302.208282	1315.969482	7537.729980	2944.988525	26.182606
302.582001	1314.270386	7416.811035	2919.480225	26.303961
302.955658	1316.012573	7311.185547	2895.713867	26.349554
303.329254	1312.506714	7221.174805	2880.034180	26.529287
303.702820	1310.958130	7142.068359	2871.194336	26.757103
304.076416	1310.807495	7075.995117	2857.321777	26.825047
304.449921	1307.430786	7021.515137	2847.299072	26.948645
304.823395	1309.603027	6969.917480	2839.448730	27.027575
305.196838	1308.527588	6920.384277	2830.243164	27.116081
305.570251	1308.183594	6865.559570	2821.188477	27.225166
305.943604	1304.828369	6805.509766	2813.208984	27.421703
306.316986	1304.312256	6761.246582	2807.315674	27.542999
306.690277	1306.420044	6728.404297	2804.541016	27.630493
307.063507	1305.581177	6712.079590	2807.165039	27.773685
307.436768	1305.989746	6721.134277	2812.370117	27.817917
307.809937	1307.258789	6748.900391	2824.973877	27.890759
308.183136	1308.011597	6803.165527	2842.115479	27.917397
308.556244	1310.054810	6877.411133	2871.387939	28.044426
308.929321	1309.172974	6967.895508	2902.596191	28.158709
309.302399	1310.226929	7060.530762	2934.041016	28.238754
309.675446	1309.043945	7157.489258	2964.152100	28.299969
310.048401	1308.054565	7253.113770	2991.123291	28.310379
310.421356	1309.237427	7348.910645	3018.739746	28.304550
310.794281	1307.839355	7451.095215	3050.098389	28.360516
311.167145	1308.248047	7564.163574	3082.575684	28.362398
311.539978	1312.119507	7661.917480	3112.428711	28.352228
311.912781	1313.324097	7733.152832	3133.872070	28.358202
312.285553	1312.012207	7749.498047	3145.722900	28.484888
312.658295	1312.399292	7722.591797	3139.055420	28.496120
313.031006	1312.227295	7670.456055	3123.290039	28.483763
313.403656	1311.839966	7615.524902	3107.997803	28.493774
313.776276	1313.603638	7565.497070	3093.845459	28.475243
314.148865	1316.313599	7539.773438	3090.791260	28.512720
314.521454	1316.442627	7537.837402	3094.511963	28.579916
314.893982	1316.958862	7538.117188	3092.727295	28.544016
315.266449	1319.109619	7502.563965	3085.156250	28.560843
315.638885	1316.851440	7438.685547	3070.143555	28.639982
316.011322	1317.281494	7355.319824	3046.506348	28.638853
316.383667	1318.270752	7282.773438	3023.385254	28.587706
316.756042	1318.722534	7224.507813	3005.899170	28.568203
317.128326	1319.754883	7172.802734	2993.123535	28.589697
317.500610	1316.872803	7118.904297	2978.885010	28.645351
317.872833	1315.517700	7058.530762	2964.066162	28.705288
318.245087	1312.592651	6980.606445	2937.460938	28.667332
